#isoforms=['ENSG00000101294.SE.1.A.up_ENSG00000101294.SE.1.A.SE1_ENSG00000101294.SE.1.A.dn','ENSG00000101294.SE.1.B.up_ENSG00000101294.SE.1.B.dn']	exon_lens=('ENSG00000101294.SE.1.A.up',99),('ENSG00000101294.SE.1.A.SE1',376),('ENSG00000101294.SE.1.A.dn',89),('ENSG00000101294.SE.1.B.up',99),('ENSG00000101294.SE.1.B.dn',89)	iters=5000	burn_in=500	lag=10	percent_accept=98.10	proposal_type=drift	counts=(0,0):1543,(1,0):174	assigned_counts=0:174	chrom=chr20	strand=+	mRNA_starts=31527484,31527484	mRNA_ends=31545035,31545035
sampled_psi	log_score
0.9489,0.0511	-1070.11
0.9097,0.0903	-1071.58
0.9629,0.0371	-1069.61
0.9580,0.0420	-1069.78
0.9656,0.0344	-1069.51
0.9522,0.0478	-1069.99
0.9387,0.0613	-1070.48
0.9023,0.0977	-1071.88
0.9610,0.0390	-1069.67
0.9688,0.0312	-1069.40
0.9630,0.0370	-1069.60
0.9577,0.0423	-1069.79
0.9314,0.0686	-1070.75
0.8958,0.1042	-1072.14
0.9596,0.0404	-1069.73
0.9688,0.0312	-1069.40
0.9536,0.0464	-1069.94
0.9569,0.0431	-1069.82
0.9249,0.0751	-1071.00
0.9002,0.0998	-1071.96
0.9613,0.0387	-1069.66
0.9672,0.0328	-1069.46
0.9433,0.0567	-1070.31
0.9592,0.0408	-1069.74
0.9224,0.0776	-1071.09
0.8979,0.1021	-1072.05
0.9657,0.0343	-1069.51
0.9674,0.0326	-1069.45
0.9507,0.0493	-1070.04
0.9505,0.0495	-1070.05
0.9119,0.0881	-1071.50
0.9106,0.0894	-1071.55
0.9642,0.0358	-1069.56
0.9592,0.0408	-1069.74
0.9523,0.0477	-1069.98
0.9529,0.0471	-1069.96
0.9145,0.0855	-1071.40
0.9165,0.0835	-1071.32
0.9645,0.0355	-1069.55
0.9491,0.0509	-1070.10
0.9598,0.0402	-1069.72
0.9468,0.0532	-1070.19
0.9398,0.0602	-1070.44
0.9198,0.0802	-1071.19
0.9649,0.0351	-1069.54
0.9545,0.0455	-1069.91
0.9707,0.0293	-1069.33
0.9364,0.0636	-1070.57
0.9295,0.0705	-1070.82
0.9151,0.0849	-1071.38
0.9550,0.0450	-1069.89
0.9513,0.0487	-1070.02
0.9687,0.0313	-1069.40
0.9487,0.0513	-1070.11
0.9411,0.0589	-1070.39
0.8972,0.1028	-1072.08
0.9554,0.0446	-1069.87
0.9564,0.0436	-1069.84
0.9724,0.0276	-1069.27
0.9459,0.0541	-1070.22
0.9330,0.0670	-1070.69
0.8824,0.1176	-1072.68
0.9468,0.0532	-1070.19
0.9631,0.0369	-1069.60
0.9715,0.0285	-1069.31
0.9487,0.0513	-1070.11
0.9412,0.0588	-1070.39
0.9048,0.0952	-1071.78
0.9497,0.0503	-1070.08
0.9555,0.0445	-1069.87
0.9729,0.0271	-1069.26
0.9460,0.0540	-1070.21
0.9278,0.0722	-1070.89
0.9207,0.0793	-1071.16
0.9514,0.0486	-1070.02
0.9615,0.0385	-1069.66
0.9801,0.0199	-1069.01
0.9477,0.0523	-1070.15
0.9364,0.0636	-1070.57
0.9168,0.0832	-1071.31
0.9525,0.0475	-1069.98
0.9626,0.0374	-1069.62
0.9789,0.0211	-1069.05
0.9492,0.0508	-1070.10
0.9428,0.0572	-1070.33
0.9036,0.0964	-1071.83
0.9499,0.0501	-1070.07
0.9694,0.0306	-1069.38
0.9811,0.0189	-1068.98
0.9459,0.0541	-1070.22
0.9558,0.0442	-1069.86
0.9104,0.0896	-1071.56
0.9473,0.0527	-1070.17
0.9720,0.0280	-1069.29
0.9815,0.0185	-1068.96
0.9634,0.0366	-1069.59
0.9642,0.0358	-1069.56
0.9231,0.0769	-1071.07
0.9498,0.0502	-1070.07
0.9652,0.0348	-1069.53
0.9804,0.0196	-1069.00
0.9658,0.0342	-1069.50
0.9537,0.0463	-1069.94
0.9322,0.0678	-1070.72
0.9442,0.0558	-1070.28
0.9710,0.0290	-1069.32
0.9758,0.0242	-1069.16
0.9656,0.0344	-1069.51
0.9563,0.0437	-1069.84
0.9283,0.0717	-1070.87
0.9481,0.0519	-1070.14
0.9749,0.0251	-1069.19
0.9706,0.0294	-1069.34
0.9720,0.0280	-1069.29
0.9503,0.0497	-1070.06
0.9096,0.0904	-1071.59
0.9600,0.0400	-1069.71
0.9695,0.0305	-1069.37
0.9668,0.0332	-1069.47
0.9680,0.0320	-1069.43
0.9441,0.0559	-1070.28
0.9119,0.0881	-1071.50
0.9646,0.0354	-1069.55
0.9680,0.0320	-1069.43
0.9735,0.0265	-1069.24
0.9733,0.0267	-1069.24
0.9417,0.0583	-1070.37
0.9211,0.0789	-1071.15
0.9695,0.0305	-1069.37
0.9697,0.0303	-1069.37
0.9712,0.0288	-1069.32
0.9759,0.0241	-1069.15
0.9223,0.0777	-1071.10
0.9298,0.0702	-1070.81
0.9602,0.0398	-1069.70
0.9649,0.0351	-1069.54
0.9694,0.0306	-1069.38
0.9676,0.0324	-1069.44
0.9203,0.0797	-1071.18
0.9406,0.0594	-1070.41
0.9715,0.0285	-1069.30
0.9742,0.0258	-1069.21
0.9610,0.0390	-1069.67
0.9675,0.0325	-1069.45
0.9154,0.0846	-1071.36
0.9195,0.0805	-1071.20
0.9710,0.0290	-1069.32
0.9741,0.0259	-1069.22
0.9614,0.0386	-1069.66
0.9635,0.0365	-1069.59
0.9227,0.0773	-1071.08
0.9219,0.0781	-1071.11
0.9706,0.0294	-1069.34
0.9679,0.0321	-1069.43
0.9632,0.0368	-1069.60
0.9701,0.0299	-1069.35
0.9238,0.0762	-1071.04
0.9074,0.0926	-1071.67
0.9736,0.0264	-1069.23
0.9769,0.0231	-1069.12
0.9568,0.0432	-1069.82
0.9708,0.0292	-1069.33
0.9142,0.0858	-1071.41
0.9158,0.0842	-1071.35
0.9680,0.0320	-1069.43
0.9814,0.0186	-1068.96
0.9508,0.0492	-1070.04
0.9711,0.0289	-1069.32
0.8994,0.1006	-1071.99
0.9026,0.0974	-1071.87
0.9729,0.0271	-1069.26
0.9835,0.0165	-1068.89
0.9668,0.0332	-1069.47
0.9692,0.0308	-1069.39
0.8996,0.1004	-1071.98
0.9094,0.0906	-1071.60
0.9722,0.0278	-1069.28
0.9840,0.0160	-1068.88
0.9732,0.0268	-1069.25
0.9656,0.0344	-1069.51
0.9043,0.0957	-1071.80
0.8867,0.1133	-1072.51
0.9729,0.0271	-1069.26
0.9851,0.0149	-1068.84
0.9796,0.0204	-1069.02
0.9593,0.0407	-1069.74
0.9025,0.0975	-1071.87
0.8908,0.1092	-1072.34
0.9697,0.0303	-1069.37
0.9857,0.0143	-1068.82
0.9816,0.0184	-1068.96
0.9576,0.0424	-1069.80
0.8993,0.1007	-1072.00
0.8962,0.1038	-1072.12
0.9678,0.0322	-1069.43
0.9839,0.0161	-1068.88
0.9816,0.0184	-1068.96
0.9595,0.0405	-1069.73
0.9002,0.0998	-1071.96
0.8812,0.1188	-1072.73
0.9661,0.0339	-1069.49
0.9796,0.0204	-1069.02
0.9807,0.0193	-1068.99
0.9650,0.0350	-1069.53
0.9095,0.0905	-1071.59
0.8907,0.1093	-1072.34
0.9717,0.0283	-1069.30
0.9836,0.0164	-1068.89
0.9749,0.0251	-1069.19
0.9731,0.0269	-1069.25
0.9020,0.0980	-1071.89
0.8799,0.1201	-1072.79
0.9695,0.0305	-1069.37
0.9838,0.0162	-1068.88
0.9753,0.0247	-1069.17
0.9748,0.0252	-1069.19
0.8918,0.1082	-1072.30
0.8828,0.1172	-1072.67
0.9626,0.0374	-1069.62
0.9858,0.0142	-1068.82
0.9753,0.0247	-1069.17
0.9710,0.0290	-1069.32
0.9247,0.0753	-1071.01
0.8806,0.1194	-1072.76
0.9605,0.0395	-1069.69
0.9798,0.0202	-1069.02
0.9773,0.0227	-1069.10
0.9660,0.0340	-1069.50
0.9473,0.0527	-1070.17
0.8691,0.1309	-1073.24
0.9569,0.0431	-1069.82
0.9820,0.0180	-1068.94
0.9819,0.0181	-1068.95
0.9725,0.0275	-1069.27
0.9406,0.0594	-1070.41
0.8704,0.1296	-1073.19
0.9641,0.0359	-1069.57
0.9846,0.0154	-1068.85
0.9835,0.0165	-1068.89
0.9704,0.0296	-1069.34
0.9418,0.0582	-1070.37
0.8622,0.1378	-1073.53
0.9708,0.0292	-1069.33
0.9866,0.0134	-1068.79
0.9854,0.0146	-1068.83
0.9750,0.0250	-1069.19
0.9445,0.0555	-1070.27
0.8922,0.1078	-1072.28
0.9723,0.0277	-1069.28
0.9863,0.0137	-1068.80
0.9826,0.0174	-1068.92
0.9738,0.0262	-1069.23
0.9446,0.0554	-1070.27
0.8834,0.1166	-1072.64
0.9732,0.0268	-1069.25
0.9816,0.0184	-1068.96
0.9836,0.0164	-1068.89
0.9766,0.0234	-1069.13
0.9356,0.0644	-1070.60
0.8916,0.1084	-1072.31
0.9651,0.0349	-1069.53
0.9818,0.0182	-1068.95
0.9863,0.0137	-1068.80
0.9784,0.0216	-1069.07
0.9207,0.0793	-1071.16
0.8912,0.1088	-1072.32
0.9632,0.0368	-1069.60
0.9804,0.0196	-1069.00
0.9841,0.0159	-1068.87
0.9811,0.0189	-1068.97
0.9187,0.0813	-1071.24
0.8950,0.1050	-1072.17
0.9641,0.0359	-1069.56
0.9754,0.0246	-1069.17
0.9858,0.0142	-1068.82
0.9753,0.0247	-1069.17
0.9199,0.0801	-1071.19
0.8984,0.1016	-1072.03
0.9679,0.0321	-1069.43
0.9773,0.0227	-1069.11
0.9853,0.0147	-1068.83
0.9750,0.0250	-1069.19
0.9331,0.0669	-1070.69
0.9130,0.0870	-1071.45
0.9698,0.0302	-1069.36
0.9799,0.0201	-1069.02
0.9808,0.0192	-1068.99
0.9768,0.0232	-1069.12
0.9138,0.0862	-1071.43
0.8895,0.1105	-1072.39
0.9662,0.0338	-1069.49
0.9739,0.0261	-1069.22
0.9784,0.0216	-1069.07
0.9721,0.0279	-1069.29
0.9297,0.0703	-1070.82
0.9091,0.0909	-1071.61
0.9672,0.0328	-1069.46
0.9768,0.0232	-1069.12
0.9799,0.0201	-1069.01
0.9728,0.0272	-1069.26
0.9469,0.0531	-1070.18
0.9139,0.0861	-1071.42
0.9702,0.0298	-1069.35
0.9766,0.0234	-1069.13
0.9750,0.0250	-1069.19
0.9745,0.0255	-1069.20
0.9529,0.0471	-1069.96
0.9266,0.0734	-1070.94
0.9706,0.0294	-1069.34
0.9769,0.0231	-1069.12
0.9758,0.0242	-1069.16
0.9704,0.0296	-1069.34
0.9481,0.0519	-1070.14
0.9355,0.0645	-1070.60
0.9703,0.0297	-1069.35
0.9664,0.0336	-1069.48
0.9737,0.0263	-1069.23
0.9686,0.0314	-1069.41
0.9447,0.0553	-1070.26
0.9431,0.0569	-1070.32
0.9743,0.0257	-1069.21
0.9661,0.0339	-1069.49
0.9683,0.0317	-1069.42
0.9644,0.0356	-1069.55
0.9471,0.0529	-1070.17
0.9530,0.0470	-1069.96
0.9755,0.0245	-1069.17
0.9673,0.0327	-1069.45
0.9689,0.0311	-1069.40
0.9603,0.0397	-1069.70
0.9448,0.0552	-1070.26
0.9446,0.0554	-1070.26
0.9719,0.0281	-1069.29
0.9753,0.0247	-1069.17
0.9612,0.0388	-1069.67
0.9591,0.0409	-1069.74
0.9476,0.0524	-1070.16
0.9480,0.0520	-1070.14
0.9756,0.0244	-1069.16
0.9810,0.0190	-1068.98
0.9658,0.0342	-1069.50
0.9699,0.0301	-1069.36
0.9562,0.0438	-1069.84
0.9562,0.0438	-1069.85
0.9800,0.0200	-1069.01
0.9782,0.0218	-1069.07
0.9642,0.0358	-1069.56
0.9773,0.0227	-1069.10
0.9535,0.0465	-1069.94
0.9541,0.0459	-1069.92
0.9782,0.0218	-1069.07
0.9850,0.0150	-1068.84
0.9628,0.0372	-1069.61
0.9769,0.0231	-1069.12
0.9512,0.0488	-1070.03
0.9470,0.0530	-1070.18
0.9735,0.0265	-1069.24
0.9874,0.0126	-1068.76
0.9684,0.0316	-1069.41
0.9770,0.0230	-1069.12
0.9668,0.0332	-1069.47
0.9596,0.0404	-1069.72
0.9680,0.0320	-1069.43
0.9879,0.0121	-1068.74
0.9693,0.0307	-1069.38
0.9780,0.0220	-1069.08
0.9580,0.0420	-1069.78
0.9572,0.0428	-1069.81
0.9643,0.0357	-1069.56
0.9881,0.0119	-1068.74
0.9637,0.0363	-1069.58
0.9709,0.0291	-1069.32
0.9579,0.0421	-1069.78
0.9587,0.0413	-1069.76
0.9658,0.0342	-1069.51
0.9873,0.0127	-1068.76
0.9622,0.0378	-1069.63
0.9653,0.0347	-1069.52
0.9620,0.0380	-1069.64
0.9602,0.0398	-1069.70
0.9648,0.0352	-1069.54
0.9845,0.0155	-1068.86
0.9693,0.0307	-1069.38
0.9530,0.0470	-1069.96
0.9733,0.0267	-1069.24
0.9558,0.0442	-1069.86
0.9714,0.0286	-1069.31
0.9840,0.0160	-1068.88
0.9682,0.0318	-1069.42
0.9501,0.0499	-1070.07
0.9699,0.0301	-1069.36
0.9482,0.0518	-1070.13
0.9623,0.0377	-1069.63
0.9828,0.0172	-1068.92
0.9676,0.0324	-1069.44
0.9596,0.0404	-1069.72
0.9772,0.0228	-1069.11
0.9532,0.0468	-1069.95
0.9627,0.0373	-1069.61
0.9847,0.0153	-1068.85
0.9682,0.0318	-1069.42
0.9666,0.0334	-1069.48
0.9728,0.0272	-1069.26
0.9598,0.0402	-1069.72
0.9700,0.0300	-1069.36
0.9834,0.0166	-1068.89
0.9712,0.0288	-1069.31
0.9697,0.0303	-1069.37
0.9706,0.0294	-1069.34
0.9536,0.0464	-1069.94
0.9772,0.0228	-1069.11
0.9841,0.0159	-1068.87
0.9711,0.0289	-1069.32
0.9630,0.0370	-1069.60
0.9710,0.0290	-1069.32
0.9662,0.0338	-1069.49
0.9758,0.0242	-1069.15
0.9818,0.0182	-1068.95
0.9673,0.0327	-1069.45
0.9680,0.0320	-1069.43
0.9753,0.0247	-1069.17
0.9738,0.0262	-1069.22
0.9714,0.0286	-1069.31
0.9780,0.0220	-1069.08
0.9575,0.0425	-1069.80
0.9602,0.0398	-1069.70
0.9749,0.0251	-1069.19
0.9678,0.0322	-1069.43
0.9719,0.0281	-1069.29
0.9815,0.0185	-1068.96
0.9517,0.0483	-1070.01
0.9631,0.0369	-1069.60
0.9806,0.0194	-1068.99
0.9720,0.0280	-1069.29
0.9685,0.0315	-1069.41
0.9819,0.0181	-1068.95
0.9443,0.0557	-1070.27
0.9644,0.0356	-1069.55
0.9777,0.0223	-1069.09
0.9795,0.0205	-1069.03
0.9695,0.0305	-1069.38
0.9842,0.0158	-1068.87
0.9463,0.0537	-1070.20
0.9648,0.0352	-1069.54
0.9775,0.0225	-1069.10
0.9831,0.0169	-1068.91
0.9761,0.0239	-1069.15
0.9858,0.0142	-1068.81
0.9472,0.0528	-1070.17
0.9698,0.0302	-1069.37
0.9791,0.0209	-1069.04
0.9863,0.0137	-1068.80
0.9803,0.0197	-1069.00
0.9841,0.0159	-1068.87
0.9411,0.0589	-1070.39
0.9711,0.0289	-1069.32
0.9728,0.0272	-1069.26
0.9807,0.0193	-1068.99
0.9756,0.0244	-1069.16
0.9806,0.0194	-1068.99
0.9417,0.0583	-1070.37
0.9718,0.0282	-1069.29
0.9686,0.0314	-1069.41
0.9829,0.0171	-1068.91
0.9767,0.0233	-1069.13
0.9775,0.0225	-1069.10
0.9483,0.0517	-1070.13
0.9699,0.0301	-1069.36
0.9712,0.0288	-1069.32
0.9817,0.0183	-1068.95
0.9792,0.0208	-1069.04
0.9744,0.0256	-1069.20
0.9342,0.0658	-1070.65
0.9693,0.0307	-1069.38
0.9729,0.0271	-1069.26
0.9844,0.0156	-1068.86
0.9806,0.0194	-1068.99
0.9684,0.0316	-1069.41
0.9386,0.0614	-1070.49
0.9791,0.0209	-1069.04
0.9774,0.0226	-1069.10
0.9850,0.0150	-1068.84
0.9842,0.0158	-1068.87
0.9684,0.0316	-1069.41
0.9548,0.0452	-1069.89
0.9788,0.0212	-1069.05
0.9814,0.0186	-1068.97
0.9843,0.0157	-1068.86
0.9787,0.0213	-1069.06
0.9636,0.0364	-1069.58
0.9614,0.0386	-1069.66
0.9759,0.0241	-1069.15
0.9816,0.0184	-1068.96
0.9840,0.0160	-1068.88
0.9803,0.0197	-1069.00
0.9610,0.0390	-1069.67
0.9681,0.0319	-1069.42
0.9785,0.0215	-1069.06
0.9799,0.0201	-1069.02
0.9830,0.0170	-1068.91
0.9796,0.0204	-1069.03
0.9637,0.0363	-1069.58
0.9684,0.0316	-1069.41
0.9743,0.0257	-1069.21
0.9758,0.0242	-1069.16
0.9803,0.0197	-1069.00
0.9819,0.0181	-1068.95
0.9638,0.0362	-1069.58
0.9721,0.0279	-1069.28
0.9727,0.0273	-1069.26
0.9731,0.0269	-1069.25
0.9838,0.0162	-1068.88
0.9725,0.0275	-1069.27
0.9642,0.0358	-1069.56
0.9731,0.0269	-1069.25
0.9787,0.0213	-1069.06
0.9750,0.0250	-1069.18
0.9759,0.0241	-1069.15
0.9736,0.0264	-1069.23
0.9646,0.0354	-1069.55
0.9761,0.0239	-1069.15
0.9784,0.0216	-1069.07
0.9794,0.0206	-1069.03
0.9735,0.0265	-1069.24
0.9742,0.0258	-1069.21
0.9662,0.0338	-1069.49
0.9765,0.0235	-1069.13
0.9780,0.0220	-1069.08
0.9795,0.0205	-1069.03
0.9651,0.0349	-1069.53
0.9736,0.0264	-1069.23
0.9715,0.0285	-1069.30
0.9784,0.0216	-1069.07
0.9764,0.0236	-1069.14
0.9717,0.0283	-1069.30
0.9681,0.0319	-1069.42
0.9674,0.0326	-1069.45
0.9778,0.0222	-1069.09
0.9756,0.0244	-1069.16
0.9664,0.0336	-1069.48
0.9740,0.0260	-1069.22
0.9688,0.0312	-1069.40
0.9674,0.0326	-1069.45
0.9783,0.0217	-1069.07
0.9756,0.0244	-1069.16
0.9711,0.0289	-1069.32
0.9700,0.0300	-1069.36
0.9634,0.0366	-1069.59
0.9645,0.0355	-1069.55
0.9758,0.0242	-1069.16
0.9737,0.0263	-1069.23
0.9746,0.0254	-1069.20
0.9721,0.0279	-1069.29
0.9607,0.0393	-1069.68
0.9743,0.0257	-1069.21
0.9791,0.0209	-1069.04
0.9679,0.0321	-1069.43
0.9786,0.0214	-1069.06
0.9758,0.0242	-1069.16
0.9615,0.0385	-1069.65
0.9777,0.0223	-1069.09
0.9811,0.0189	-1068.97
0.9691,0.0309	-1069.39
0.9758,0.0242	-1069.16
0.9776,0.0224	-1069.09
0.9697,0.0303	-1069.37
0.9816,0.0184	-1068.96
0.9793,0.0207	-1069.04
0.9669,0.0331	-1069.47
0.9740,0.0260	-1069.22
0.9779,0.0221	-1069.08
0.9761,0.0239	-1069.15
0.9768,0.0232	-1069.12
0.9799,0.0201	-1069.02
0.9657,0.0343	-1069.51
0.9762,0.0238	-1069.14
0.9772,0.0228	-1069.11
0.9761,0.0239	-1069.15
0.9766,0.0234	-1069.13
0.9808,0.0192	-1068.98
0.9684,0.0316	-1069.41
0.9712,0.0288	-1069.32
0.9746,0.0254	-1069.20
0.9782,0.0218	-1069.07
0.9838,0.0162	-1068.88
0.9820,0.0180	-1068.95
0.9623,0.0377	-1069.63
0.9641,0.0359	-1069.56
0.9710,0.0290	-1069.32
0.9816,0.0184	-1068.96
0.9835,0.0165	-1068.89
0.9850,0.0150	-1068.84
0.9664,0.0336	-1069.48
0.9634,0.0366	-1069.59
0.9645,0.0355	-1069.55
0.9762,0.0238	-1069.14
0.9808,0.0192	-1068.99
0.9835,0.0165	-1068.89
0.9592,0.0408	-1069.74
0.9672,0.0328	-1069.46
0.9746,0.0254	-1069.20
0.9757,0.0243	-1069.16
0.9805,0.0195	-1069.00
0.9794,0.0206	-1069.03
0.9537,0.0463	-1069.94
0.9691,0.0309	-1069.39
0.9814,0.0186	-1068.96
0.9757,0.0243	-1069.16
0.9818,0.0182	-1068.95
0.9774,0.0226	-1069.10
0.9464,0.0536	-1070.20
0.9714,0.0286	-1069.31
0.9754,0.0246	-1069.17
0.9755,0.0245	-1069.17
0.9789,0.0211	-1069.05
0.9738,0.0262	-1069.22
0.9588,0.0412	-1069.75
0.9711,0.0289	-1069.32
0.9806,0.0194	-1068.99
0.9696,0.0304	-1069.37
0.9788,0.0212	-1069.05
0.9761,0.0239	-1069.15
0.9681,0.0319	-1069.42
0.9789,0.0211	-1069.05
0.9845,0.0155	-1068.86
0.9674,0.0326	-1069.45
0.9845,0.0155	-1068.86
0.9817,0.0183	-1068.95
0.9619,0.0381	-1069.64
0.9773,0.0227	-1069.10
0.9832,0.0168	-1068.90
0.9671,0.0329	-1069.46
0.9823,0.0177	-1068.93
0.9813,0.0187	-1068.97
0.9506,0.0494	-1070.05
0.9781,0.0219	-1069.08
0.9799,0.0201	-1069.02
0.9679,0.0321	-1069.43
0.9761,0.0239	-1069.15
0.9835,0.0165	-1068.89
0.9432,0.0568	-1070.31
0.9813,0.0187	-1068.97
0.9767,0.0233	-1069.12
0.9737,0.0263	-1069.23
0.9786,0.0214	-1069.06
0.9841,0.0159	-1068.87
0.9494,0.0506	-1070.09
0.9846,0.0154	-1068.86
0.9808,0.0192	-1068.98
0.9723,0.0277	-1069.28
0.9800,0.0200	-1069.01
0.9859,0.0141	-1068.81
0.9545,0.0455	-1069.90
0.9843,0.0157	-1068.87
0.9807,0.0193	-1068.99
0.9802,0.0198	-1069.01
0.9817,0.0183	-1068.96
0.9852,0.0148	-1068.83
0.9616,0.0384	-1069.65
0.9826,0.0174	-1068.92
0.9821,0.0179	-1068.94
0.9802,0.0198	-1069.01
0.9838,0.0162	-1068.88
0.9810,0.0190	-1068.98
0.9571,0.0429	-1069.81
0.9844,0.0156	-1068.86
0.9855,0.0145	-1068.83
0.9728,0.0272	-1069.26
0.9813,0.0187	-1068.97
0.9807,0.0193	-1068.99
0.9590,0.0410	-1069.75
0.9834,0.0166	-1068.90
0.9813,0.0187	-1068.97
0.9780,0.0220	-1069.08
0.9810,0.0190	-1068.98
0.9811,0.0189	-1068.97
0.9581,0.0419	-1069.78
0.9830,0.0170	-1068.91
0.9803,0.0197	-1069.00
0.9755,0.0245	-1069.17
0.9795,0.0205	-1069.03
0.9825,0.0175	-1068.93
0.9558,0.0442	-1069.86
0.9830,0.0170	-1068.91
0.9803,0.0197	-1069.00
0.9762,0.0238	-1069.14
0.9789,0.0211	-1069.05
0.9820,0.0180	-1068.94
0.9496,0.0504	-1070.08
0.9858,0.0142	-1068.81
0.9802,0.0198	-1069.00
0.9787,0.0213	-1069.06
0.9759,0.0241	-1069.15
0.9817,0.0183	-1068.95
0.9455,0.0545	-1070.23
0.9829,0.0171	-1068.91
0.9781,0.0219	-1069.08
0.9785,0.0215	-1069.06
0.9787,0.0213	-1069.06
0.9842,0.0158	-1068.87
0.9521,0.0479	-1069.99
0.9837,0.0163	-1068.89
0.9738,0.0262	-1069.23
0.9788,0.0212	-1069.05
0.9828,0.0172	-1068.92
0.9815,0.0185	-1068.96
0.9489,0.0511	-1070.11
0.9793,0.0207	-1069.04
0.9755,0.0245	-1069.17
0.9782,0.0218	-1069.07
0.9820,0.0180	-1068.94
0.9788,0.0212	-1069.05
0.9502,0.0498	-1070.06
0.9773,0.0227	-1069.10
0.9777,0.0223	-1069.09
0.9821,0.0179	-1068.94
0.9847,0.0153	-1068.85
0.9772,0.0228	-1069.11
0.9591,0.0409	-1069.74
0.9683,0.0317	-1069.42
0.9797,0.0203	-1069.02
0.9800,0.0200	-1069.01
0.9825,0.0175	-1068.93
0.9789,0.0211	-1069.05
0.9612,0.0388	-1069.67
0.9690,0.0310	-1069.39
0.9786,0.0214	-1069.06
0.9802,0.0198	-1069.01
0.9813,0.0187	-1068.97
0.9725,0.0275	-1069.27
0.9638,0.0362	-1069.58
0.9785,0.0215	-1069.06
0.9797,0.0203	-1069.02
0.9785,0.0215	-1069.06
0.9789,0.0211	-1069.05
0.9719,0.0281	-1069.29
0.9726,0.0274	-1069.27
0.9773,0.0227	-1069.11
0.9845,0.0155	-1068.86
0.9771,0.0229	-1069.11
0.9760,0.0240	-1069.15
0.9730,0.0270	-1069.25
0.9735,0.0265	-1069.24
0.9803,0.0197	-1069.00
0.9886,0.0114	-1068.72
0.9804,0.0196	-1069.00
0.9770,0.0230	-1069.12
0.9725,0.0275	-1069.27
0.9764,0.0236	-1069.14
0.9785,0.0215	-1069.06
0.9891,0.0109	-1068.70
0.9819,0.0181	-1068.95
0.9805,0.0195	-1068.99
0.9765,0.0235	-1069.13
0.9782,0.0218	-1069.07
0.9772,0.0228	-1069.11
0.9878,0.0122	-1068.75
0.9826,0.0174	-1068.92
0.9795,0.0205	-1069.03
0.9771,0.0229	-1069.11
0.9725,0.0275	-1069.27
0.9798,0.0202	-1069.02
0.9857,0.0143	-1068.82
0.9808,0.0192	-1068.98
0.9834,0.0166	-1068.90
0.9794,0.0206	-1069.03
0.9727,0.0273	-1069.26
0.9742,0.0258	-1069.21
0.9847,0.0153	-1068.85
0.9822,0.0178	-1068.94
0.9843,0.0157	-1068.87
0.9786,0.0214	-1069.06
0.9715,0.0285	-1069.31
0.9692,0.0308	-1069.39
0.9860,0.0140	-1068.81
0.9801,0.0199	-1069.01
0.9845,0.0155	-1068.86
0.9737,0.0263	-1069.23
0.9770,0.0230	-1069.12
0.9719,0.0281	-1069.29
0.9875,0.0125	-1068.76
0.9763,0.0237	-1069.14
0.9871,0.0129	-1068.77
0.9751,0.0249	-1069.18
0.9762,0.0238	-1069.14
0.9667,0.0333	-1069.47
0.9829,0.0171	-1068.91
0.9730,0.0270	-1069.25
0.9861,0.0139	-1068.80
0.9714,0.0286	-1069.31
0.9757,0.0243	-1069.16
0.9718,0.0282	-1069.30
0.9784,0.0216	-1069.07
0.9719,0.0281	-1069.29
0.9889,0.0111	-1068.71
0.9667,0.0333	-1069.47
0.9691,0.0309	-1069.39
0.9684,0.0316	-1069.41
0.9785,0.0215	-1069.06
0.9698,0.0302	-1069.36
0.9886,0.0114	-1068.72
0.9634,0.0366	-1069.59
0.9673,0.0327	-1069.45
0.9773,0.0227	-1069.10
0.9738,0.0262	-1069.23
0.9712,0.0288	-1069.32
0.9902,0.0098	-1068.66
0.9541,0.0459	-1069.92
0.9608,0.0392	-1069.68
0.9780,0.0220	-1069.08
0.9739,0.0261	-1069.22
0.9696,0.0304	-1069.37
0.9911,0.0089	-1068.64
0.9541,0.0459	-1069.92
0.9487,0.0513	-1070.11
0.9812,0.0188	-1068.97
0.9783,0.0217	-1069.07
0.9662,0.0338	-1069.49
0.9927,0.0073	-1068.58
0.9474,0.0526	-1070.16
0.9542,0.0458	-1069.92
0.9793,0.0207	-1069.04
0.9793,0.0207	-1069.04
0.9682,0.0318	-1069.42
0.9922,0.0078	-1068.60
0.9421,0.0579	-1070.36
0.9534,0.0466	-1069.95
0.9805,0.0195	-1068.99
0.9760,0.0240	-1069.15
0.9535,0.0465	-1069.94
0.9906,0.0094	-1068.65
0.9513,0.0487	-1070.02
0.9545,0.0455	-1069.91
0.9797,0.0203	-1069.02
0.9719,0.0281	-1069.29
0.9510,0.0490	-1070.03
0.9927,0.0073	-1068.58
0.9439,0.0561	-1070.29
0.9599,0.0401	-1069.71
0.9775,0.0225	-1069.10
0.9630,0.0370	-1069.60
0.9466,0.0534	-1070.19
0.9944,0.0056	-1068.53
0.9360,0.0640	-1070.58
0.9552,0.0448	-1069.88
0.9746,0.0254	-1069.20
0.9640,0.0360	-1069.57
0.9514,0.0486	-1070.02
0.9936,0.0064	-1068.55
0.9262,0.0738	-1070.95
0.9560,0.0440	-1069.85
0.9772,0.0228	-1069.11
0.9613,0.0387	-1069.66
0.9520,0.0480	-1070.00
0.9935,0.0065	-1068.56
0.9120,0.0880	-1071.50
0.9436,0.0564	-1070.30
0.9790,0.0210	-1069.05
0.9515,0.0485	-1070.01
0.9438,0.0562	-1070.29
0.9940,0.0060	-1068.54
0.8823,0.1177	-1072.69
0.9491,0.0509	-1070.10
0.9790,0.0210	-1069.04
0.9508,0.0492	-1070.04
0.9490,0.0510	-1070.10
0.9939,0.0061	-1068.54
0.8859,0.1141	-1072.54
0.9533,0.0467	-1069.95
0.9793,0.0207	-1069.04
0.9490,0.0510	-1070.10
0.9593,0.0407	-1069.73
0.9947,0.0053	-1068.52
0.8882,0.1118	-1072.45
0.9517,0.0483	-1070.01
0.9809,0.0191	-1068.98
0.9544,0.0456	-1069.91
0.9568,0.0432	-1069.82
0.9946,0.0054	-1068.52
0.9020,0.0980	-1071.89
0.9559,0.0441	-1069.86
0.9782,0.0218	-1069.08
0.9558,0.0442	-1069.86
0.9618,0.0382	-1069.65
0.9947,0.0053	-1068.51
0.9062,0.0938	-1071.72
0.9547,0.0453	-1069.90
0.9679,0.0321	-1069.43
0.9519,0.0481	-1070.00
0.9612,0.0388	-1069.67
0.9955,0.0045	-1068.49
0.8970,0.1030	-1072.09
0.9644,0.0356	-1069.56
0.9567,0.0433	-1069.83
0.9575,0.0425	-1069.80
0.9626,0.0374	-1069.62
0.9960,0.0040	-1068.47
0.8856,0.1144	-1072.55
0.9656,0.0344	-1069.51
0.9630,0.0370	-1069.60
0.9607,0.0393	-1069.68
0.9632,0.0368	-1069.60
0.9957,0.0043	-1068.48
0.9018,0.0982	-1071.90
0.9665,0.0335	-1069.48
0.9638,0.0362	-1069.57
0.9575,0.0425	-1069.80
0.9683,0.0317	-1069.42
0.9953,0.0047	-1068.50
0.9204,0.0796	-1071.17
0.9731,0.0269	-1069.25
0.9585,0.0415	-1069.76
0.9621,0.0379	-1069.63
0.9680,0.0320	-1069.43
0.9953,0.0047	-1068.49
0.9062,0.0938	-1071.72
0.9707,0.0293	-1069.33
0.9567,0.0433	-1069.83
0.9565,0.0435	-1069.83
0.9762,0.0238	-1069.14
0.9939,0.0061	-1068.54
0.9133,0.0867	-1071.44
0.9743,0.0257	-1069.21
0.9530,0.0470	-1069.96
0.9505,0.0495	-1070.05
0.9727,0.0273	-1069.26
0.9943,0.0057	-1068.53
0.9250,0.0750	-1070.99
0.9704,0.0296	-1069.34
0.9488,0.0512	-1070.11
0.9554,0.0446	-1069.87
0.9762,0.0238	-1069.14
0.9947,0.0053	-1068.51
0.9395,0.0605	-1070.45
0.9617,0.0383	-1069.65
0.9397,0.0603	-1070.45
0.9419,0.0581	-1070.36
0.9788,0.0212	-1069.05
0.9944,0.0056	-1068.53
0.9413,0.0587	-1070.39
0.9668,0.0332	-1069.47
0.9391,0.0609	-1070.47
0.9130,0.0870	-1071.46
0.9799,0.0201	-1069.02
0.9942,0.0058	-1068.53
0.9352,0.0648	-1070.61
0.9697,0.0303	-1069.37
0.9277,0.0723	-1070.89
0.9051,0.0949	-1071.77
0.9809,0.0191	-1068.98
0.9937,0.0063	-1068.55
0.9372,0.0628	-1070.54
0.9746,0.0254	-1069.20
0.9280,0.0720	-1070.88
0.9182,0.0818	-1071.26
0.9823,0.0177	-1068.93
0.9934,0.0066	-1068.56
0.9431,0.0569	-1070.32
0.9674,0.0326	-1069.45
0.9239,0.0761	-1071.04
0.9281,0.0719	-1070.88
0.9805,0.0195	-1068.99
0.9927,0.0073	-1068.58
0.9485,0.0515	-1070.12
0.9738,0.0262	-1069.23
0.9366,0.0634	-1070.56
0.9442,0.0558	-1070.28
0.9813,0.0187	-1068.97
0.9944,0.0056	-1068.53
0.9605,0.0395	-1069.69
0.9794,0.0206	-1069.03
0.9416,0.0584	-1070.38
0.9525,0.0475	-1069.98
0.9832,0.0168	-1068.90
0.9944,0.0056	-1068.53
0.9562,0.0438	-1069.84
0.9831,0.0169	-1068.91
0.9446,0.0554	-1070.27
0.9533,0.0467	-1069.95
0.9858,0.0142	-1068.82
0.9940,0.0060	-1068.54
0.9509,0.0491	-1070.03
0.9826,0.0174	-1068.92
0.9546,0.0454	-1069.90
0.9588,0.0412	-1069.75
0.9839,0.0161	-1068.88
0.9947,0.0053	-1068.51
0.9490,0.0510	-1070.11
0.9839,0.0161	-1068.88
0.9519,0.0481	-1070.00
0.9600,0.0400	-1069.71
0.9828,0.0172	-1068.92
0.9955,0.0045	-1068.49
0.9482,0.0518	-1070.13
0.9827,0.0173	-1068.92
0.9526,0.0474	-1069.97
0.9584,0.0416	-1069.76
0.9832,0.0168	-1068.90
0.9951,0.0049	-1068.50
0.9465,0.0535	-1070.20
0.9826,0.0174	-1068.92
0.9482,0.0518	-1070.14
0.9477,0.0523	-1070.15
0.9813,0.0187	-1068.97
0.9949,0.0051	-1068.51
0.9455,0.0545	-1070.23
0.9848,0.0152	-1068.85
0.9396,0.0604	-1070.45
0.9428,0.0572	-1070.33
0.9830,0.0170	-1068.91
0.9950,0.0050	-1068.51
0.9317,0.0683	-1070.74
0.9849,0.0151	-1068.85
0.9516,0.0484	-1070.01
0.9366,0.0634	-1070.56
0.9834,0.0166	-1068.89
0.9954,0.0046	-1068.49
0.9411,0.0589	-1070.39
0.9808,0.0192	-1068.99
0.9474,0.0526	-1070.16
0.9412,0.0588	-1070.39
0.9852,0.0148	-1068.83
0.9955,0.0045	-1068.49
0.9503,0.0497	-1070.06
0.9837,0.0163	-1068.89
0.9641,0.0359	-1069.56
0.9270,0.0730	-1070.92
0.9849,0.0151	-1068.84
0.9938,0.0062	-1068.55
0.9551,0.0449	-1069.88
0.9819,0.0181	-1068.95
0.9690,0.0310	-1069.39
0.9378,0.0622	-1070.52
0.9853,0.0147	-1068.83
0.9935,0.0065	-1068.56
0.9440,0.0560	-1070.29
0.9840,0.0160	-1068.87
0.9639,0.0361	-1069.57
0.9439,0.0561	-1070.29
0.9830,0.0170	-1068.91
0.9906,0.0094	-1068.65
0.9459,0.0541	-1070.22
0.9799,0.0201	-1069.01
0.9689,0.0311	-1069.40
0.9472,0.0528	-1070.17
0.9788,0.0212	-1069.05
0.9908,0.0092	-1068.64
0.9552,0.0448	-1069.88
0.9802,0.0198	-1069.01
0.9765,0.0235	-1069.13
0.9478,0.0522	-1070.15
0.9821,0.0179	-1068.94
0.9910,0.0090	-1068.64
0.9491,0.0509	-1070.10
0.9803,0.0197	-1069.00
0.9748,0.0252	-1069.19
0.9574,0.0426	-1069.80
0.9816,0.0184	-1068.96
0.9923,0.0077	-1068.59
0.9602,0.0398	-1069.70
0.9819,0.0181	-1068.95
0.9760,0.0240	-1069.15
0.9576,0.0424	-1069.79
0.9759,0.0241	-1069.15
0.9924,0.0076	-1068.59
0.9653,0.0347	-1069.52
0.9813,0.0187	-1068.97
0.9770,0.0230	-1069.11
0.9465,0.0535	-1070.19
0.9794,0.0206	-1069.03
0.9923,0.0077	-1068.59
0.9543,0.0457	-1069.91
0.9826,0.0174	-1068.92
0.9761,0.0239	-1069.15
0.9578,0.0422	-1069.79
0.9722,0.0278	-1069.28
0.9907,0.0093	-1068.65
0.9497,0.0503	-1070.08
0.9728,0.0272	-1069.26
0.9778,0.0222	-1069.09
0.9602,0.0398	-1069.70
0.9708,0.0292	-1069.33
0.9896,0.0104	-1068.69
0.9559,0.0441	-1069.86
0.9778,0.0222	-1069.09
0.9739,0.0261	-1069.22
0.9609,0.0391	-1069.68
0.9774,0.0226	-1069.10
0.9903,0.0097	-1068.66
0.9473,0.0527	-1070.17
0.9798,0.0202	-1069.02
0.9747,0.0253	-1069.19
0.9600,0.0400	-1069.71
0.9798,0.0202	-1069.02
0.9919,0.0081	-1068.61
0.9540,0.0460	-1069.92
0.9816,0.0184	-1068.96
0.9790,0.0210	-1069.05
0.9646,0.0354	-1069.55
0.9744,0.0256	-1069.21
0.9922,0.0078	-1068.60
0.9496,0.0504	-1070.08
0.9832,0.0168	-1068.90
0.9789,0.0211	-1069.05
0.9692,0.0308	-1069.38
0.9770,0.0230	-1069.12
0.9920,0.0080	-1068.61
0.9458,0.0542	-1070.22
0.9845,0.0155	-1068.86
0.9780,0.0220	-1069.08
0.9724,0.0276	-1069.28
0.9734,0.0266	-1069.24
0.9940,0.0060	-1068.54
0.9526,0.0474	-1069.97
0.9804,0.0196	-1069.00
0.9774,0.0226	-1069.10
0.9763,0.0237	-1069.14
0.9764,0.0236	-1069.13
0.9947,0.0053	-1068.52
0.9607,0.0393	-1069.69
0.9796,0.0204	-1069.03
0.9778,0.0222	-1069.09
0.9756,0.0244	-1069.16
0.9778,0.0222	-1069.09
0.9941,0.0059	-1068.53
0.9620,0.0380	-1069.64
0.9770,0.0230	-1069.11
0.9816,0.0184	-1068.96
0.9789,0.0211	-1069.05
0.9765,0.0235	-1069.13
0.9934,0.0066	-1068.56
0.9656,0.0344	-1069.51
0.9794,0.0206	-1069.03
0.9753,0.0247	-1069.17
0.9820,0.0180	-1068.94
0.9771,0.0229	-1069.11
0.9941,0.0059	-1068.53
0.9702,0.0298	-1069.35
0.9734,0.0266	-1069.24
0.9736,0.0264	-1069.23
0.9772,0.0228	-1069.11
0.9763,0.0237	-1069.14
0.9943,0.0057	-1068.53
0.9784,0.0216	-1069.07
0.9721,0.0279	-1069.28
0.9772,0.0228	-1069.11
0.9804,0.0196	-1069.00
0.9802,0.0198	-1069.01
0.9944,0.0056	-1068.53
0.9762,0.0238	-1069.14
0.9781,0.0219	-1069.08
0.9737,0.0263	-1069.23
0.9766,0.0234	-1069.13
0.9778,0.0222	-1069.09
0.9942,0.0058	-1068.53
0.9754,0.0246	-1069.17
0.9820,0.0180	-1068.94
0.9722,0.0278	-1069.28
0.9848,0.0152	-1068.85
0.9790,0.0210	-1069.05
0.9948,0.0052	-1068.51
0.9742,0.0258	-1069.21
0.9873,0.0127	-1068.76
0.9773,0.0227	-1069.11
0.9809,0.0191	-1068.98
0.9772,0.0228	-1069.11
0.9952,0.0048	-1068.50
0.9728,0.0272	-1069.26
0.9896,0.0104	-1068.69
0.9741,0.0259	-1069.21
0.9795,0.0205	-1069.03
0.9692,0.0308	-1069.39
0.9941,0.0059	-1068.53
0.9766,0.0234	-1069.13
0.9885,0.0115	-1068.72
0.9774,0.0226	-1069.10
0.9771,0.0229	-1069.11
0.9692,0.0308	-1069.38
0.9946,0.0054	-1068.52
0.9744,0.0256	-1069.21
0.9841,0.0159	-1068.87
0.9788,0.0212	-1069.05
0.9776,0.0224	-1069.09
0.9713,0.0287	-1069.31
0.9926,0.0074	-1068.59
0.9763,0.0237	-1069.14
0.9828,0.0172	-1068.92
0.9765,0.0235	-1069.13
0.9801,0.0199	-1069.01
0.9647,0.0353	-1069.54
0.9926,0.0074	-1068.59
0.9756,0.0244	-1069.16
0.9817,0.0183	-1068.95
0.9723,0.0277	-1069.28
0.9807,0.0193	-1068.99
0.9632,0.0368	-1069.60
0.9920,0.0080	-1068.61
0.9740,0.0260	-1069.22
0.9781,0.0219	-1069.08
0.9753,0.0247	-1069.17
0.9740,0.0260	-1069.22
0.9515,0.0485	-1070.01
0.9898,0.0102	-1068.68
0.9723,0.0277	-1069.28
0.9816,0.0184	-1068.96
0.9729,0.0271	-1069.26
0.9742,0.0258	-1069.21
0.9515,0.0485	-1070.01
0.9886,0.0114	-1068.72
0.9722,0.0278	-1069.28
0.9795,0.0205	-1069.03
0.9707,0.0293	-1069.33
0.9760,0.0240	-1069.15
0.9488,0.0512	-1070.11
0.9900,0.0100	-1068.67
0.9748,0.0252	-1069.19
0.9823,0.0177	-1068.93
0.9746,0.0254	-1069.20
0.9781,0.0219	-1069.08
0.9405,0.0595	-1070.41
0.9916,0.0084	-1068.62
0.9779,0.0221	-1069.08
0.9794,0.0206	-1069.03
0.9735,0.0265	-1069.24
0.9780,0.0220	-1069.08
0.9497,0.0503	-1070.08
0.9913,0.0087	-1068.63
0.9756,0.0244	-1069.16
0.9710,0.0290	-1069.32
0.9702,0.0298	-1069.35
0.9713,0.0287	-1069.31
0.9450,0.0550	-1070.25
0.9898,0.0102	-1068.68
0.9745,0.0255	-1069.20
0.9712,0.0288	-1069.32
0.9698,0.0302	-1069.36
0.9656,0.0344	-1069.51
0.9450,0.0550	-1070.25
0.9885,0.0115	-1068.72
0.9735,0.0265	-1069.23
0.9633,0.0367	-1069.59
0.9704,0.0296	-1069.35
0.9672,0.0328	-1069.45
0.9455,0.0545	-1070.23
0.9880,0.0120	-1068.74
0.9776,0.0224	-1069.10
0.9671,0.0329	-1069.46
0.9719,0.0281	-1069.29
0.9714,0.0286	-1069.31
0.9452,0.0548	-1070.24
0.9852,0.0148	-1068.83
0.9772,0.0228	-1069.11
0.9583,0.0417	-1069.77
0.9744,0.0256	-1069.20
0.9780,0.0220	-1069.08
0.9376,0.0624	-1070.52
0.9827,0.0173	-1068.92
0.9739,0.0261	-1069.22
0.9530,0.0470	-1069.96
0.9734,0.0266	-1069.24
0.9795,0.0205	-1069.03
0.9425,0.0575	-1070.34
0.9852,0.0148	-1068.83
0.9764,0.0236	-1069.14
0.9514,0.0486	-1070.02
0.9701,0.0299	-1069.35
0.9783,0.0217	-1069.07
0.9294,0.0706	-1070.83
0.9832,0.0168	-1068.90
0.9796,0.0204	-1069.03
0.9502,0.0498	-1070.06
0.9723,0.0277	-1069.28
0.9763,0.0237	-1069.14
0.9230,0.0770	-1071.07
0.9825,0.0175	-1068.93
0.9804,0.0196	-1069.00
0.9455,0.0545	-1070.23
0.9729,0.0271	-1069.26
0.9771,0.0229	-1069.11
0.9283,0.0717	-1070.87
0.9823,0.0177	-1068.93
0.9727,0.0273	-1069.26
0.9528,0.0472	-1069.97
0.9780,0.0220	-1069.08
0.9739,0.0261	-1069.22
0.9172,0.0828	-1071.29
0.9860,0.0140	-1068.81
0.9651,0.0349	-1069.53
0.9548,0.0452	-1069.89
0.9785,0.0215	-1069.06
0.9756,0.0244	-1069.16
0.9299,0.0701	-1070.81
0.9872,0.0128	-1068.77
0.9618,0.0382	-1069.65
0.9504,0.0496	-1070.05
0.9775,0.0225	-1069.10
0.9670,0.0330	-1069.46
0.9269,0.0731	-1070.92
0.9869,0.0131	-1068.78
0.9547,0.0453	-1069.90
0.9324,0.0676	-1070.72
0.9746,0.0254	-1069.20
0.9619,0.0381	-1069.64
0.9344,0.0656	-1070.64
0.9873,0.0127	-1068.76
0.9479,0.0521	-1070.14
0.9301,0.0699	-1070.80
0.9720,0.0280	-1069.29
0.9614,0.0386	-1069.66
0.9359,0.0641	-1070.59
0.9867,0.0133	-1068.78
0.9558,0.0442	-1069.86
0.9409,0.0591	-1070.40
0.9737,0.0263	-1069.23
0.9714,0.0286	-1069.31
0.9399,0.0601	-1070.44
0.9868,0.0132	-1068.78
0.9455,0.0545	-1070.23
0.9454,0.0546	-1070.24
0.9754,0.0246	-1069.17
0.9723,0.0277	-1069.28
0.9374,0.0626	-1070.53
0.9887,0.0113	-1068.72
0.9424,0.0576	-1070.35
0.9536,0.0464	-1069.94
0.9753,0.0247	-1069.17
0.9727,0.0273	-1069.27
0.9373,0.0627	-1070.53
0.9860,0.0140	-1068.81
0.9392,0.0608	-1070.47
0.9507,0.0493	-1070.04
0.9588,0.0412	-1069.75
0.9695,0.0305	-1069.37
0.9298,0.0702	-1070.81
0.9873,0.0127	-1068.76
0.9449,0.0551	-1070.25
0.9368,0.0632	-1070.55
0.9460,0.0540	-1070.21
0.9572,0.0428	-1069.81
0.9470,0.0530	-1070.18
0.9843,0.0157	-1068.87
0.9478,0.0522	-1070.15
0.9223,0.0777	-1071.10
0.9312,0.0688	-1070.76
0.9551,0.0449	-1069.89
0.9453,0.0547	-1070.24
0.9840,0.0160	-1068.88
0.9505,0.0495	-1070.05
0.9272,0.0728	-1070.91
0.9418,0.0582	-1070.37
0.9439,0.0561	-1070.29
0.9494,0.0506	-1070.09
0.9818,0.0182	-1068.95
0.9552,0.0448	-1069.88
0.9052,0.0948	-1071.76
0.9448,0.0552	-1070.26
0.9527,0.0473	-1069.97
0.9360,0.0640	-1070.58
0.9813,0.0187	-1068.97
0.9505,0.0495	-1070.05
0.9255,0.0745	-1070.98
0.9560,0.0440	-1069.85
0.9605,0.0395	-1069.69
0.9391,0.0609	-1070.47
0.9766,0.0234	-1069.13
0.9581,0.0419	-1069.78
0.9187,0.0813	-1071.24
0.9675,0.0325	-1069.44
0.9635,0.0365	-1069.59
0.9383,0.0617	-1070.50
0.9748,0.0252	-1069.19
0.9476,0.0524	-1070.16
0.9130,0.0870	-1071.45
0.9754,0.0246	-1069.17
0.9564,0.0436	-1069.84
0.9497,0.0503	-1070.08
0.9783,0.0217	-1069.07
0.9515,0.0485	-1070.01
0.9069,0.0931	-1071.69
0.9761,0.0239	-1069.15
0.9523,0.0477	-1069.99
0.9579,0.0421	-1069.78
0.9763,0.0237	-1069.14
0.9497,0.0503	-1070.08
0.9194,0.0806	-1071.21
0.9805,0.0195	-1068.99
0.9408,0.0592	-1070.41
0.9589,0.0411	-1069.75
0.9810,0.0190	-1068.98
0.9491,0.0509	-1070.10
0.9133,0.0867	-1071.45
0.9778,0.0222	-1069.09
0.9433,0.0567	-1070.31
0.9634,0.0366	-1069.59
0.9753,0.0247	-1069.17
0.9513,0.0487	-1070.02
0.9107,0.0893	-1071.54
0.9769,0.0231	-1069.12
0.9441,0.0559	-1070.28
0.9624,0.0376	-1069.62
0.9749,0.0251	-1069.19
0.9514,0.0486	-1070.02
0.9257,0.0743	-1070.97
0.9726,0.0274	-1069.27
0.9432,0.0568	-1070.31
0.9531,0.0469	-1069.96
0.9799,0.0201	-1069.02
0.9479,0.0521	-1070.15
0.9304,0.0696	-1070.79
0.9691,0.0309	-1069.39
0.9508,0.0492	-1070.04
0.9588,0.0412	-1069.75
0.9721,0.0279	-1069.28
0.9583,0.0417	-1069.77
0.9411,0.0589	-1070.39
0.9697,0.0303	-1069.37
0.9635,0.0365	-1069.59
0.9544,0.0456	-1069.91
0.9704,0.0296	-1069.34
0.9623,0.0377	-1069.63
0.9250,0.0750	-1070.99
0.9717,0.0283	-1069.30
0.9656,0.0344	-1069.51
0.9612,0.0388	-1069.67
0.9728,0.0272	-1069.26
0.9673,0.0327	-1069.45
0.9161,0.0839	-1071.34
0.9659,0.0341	-1069.50
0.9664,0.0336	-1069.48
0.9623,0.0377	-1069.63
0.9757,0.0243	-1069.16
0.9677,0.0323	-1069.44
0.9186,0.0814	-1071.24
0.9706,0.0294	-1069.34
0.9682,0.0318	-1069.42
0.9695,0.0305	-1069.38
0.9787,0.0213	-1069.06
0.9676,0.0324	-1069.44
0.9159,0.0841	-1071.34
0.9735,0.0265	-1069.24
0.9666,0.0334	-1069.48
0.9693,0.0307	-1069.38
0.9799,0.0201	-1069.02
0.9730,0.0270	-1069.25
0.9114,0.0886	-1071.52
0.9792,0.0208	-1069.04
0.9758,0.0242	-1069.16
0.9700,0.0300	-1069.36
0.9822,0.0178	-1068.94
0.9691,0.0309	-1069.39
0.9111,0.0889	-1071.53
0.9799,0.0201	-1069.01
0.9771,0.0229	-1069.11
0.9656,0.0344	-1069.51
0.9759,0.0241	-1069.15
0.9727,0.0273	-1069.26
0.9188,0.0812	-1071.23
0.9798,0.0202	-1069.02
0.9799,0.0201	-1069.01
0.9599,0.0401	-1069.71
0.9804,0.0196	-1069.00
0.9781,0.0219	-1069.08
0.9175,0.0825	-1071.28
0.9743,0.0257	-1069.21
0.9848,0.0152	-1068.85
0.9604,0.0396	-1069.69
0.9829,0.0171	-1068.91
0.9834,0.0166	-1068.90
0.9150,0.0850	-1071.38
0.9806,0.0194	-1068.99
0.9838,0.0162	-1068.88
0.9505,0.0495	-1070.05
0.9822,0.0178	-1068.94
0.9866,0.0134	-1068.79
0.9039,0.0961	-1071.81
0.9724,0.0276	-1069.28
0.9853,0.0147	-1068.83
0.9414,0.0586	-1070.38
0.9822,0.0178	-1068.94
0.9890,0.0110	-1068.71
0.9364,0.0636	-1070.57
0.9686,0.0314	-1069.41
0.9835,0.0165	-1068.89
0.9419,0.0581	-1070.36
0.9857,0.0143	-1068.82
0.9860,0.0140	-1068.81
0.9166,0.0834	-1071.32
0.9686,0.0314	-1069.41
0.9867,0.0133	-1068.78
0.9391,0.0609	-1070.47
0.9872,0.0128	-1068.77
0.9838,0.0162	-1068.88
0.9159,0.0841	-1071.35
0.9554,0.0446	-1069.88
0.9882,0.0118	-1068.73
0.9476,0.0524	-1070.15
0.9865,0.0135	-1068.79
0.9834,0.0166	-1068.89
0.8972,0.1028	-1072.08
0.9471,0.0529	-1070.17
0.9862,0.0138	-1068.80
0.9551,0.0449	-1069.88
0.9860,0.0140	-1068.81
0.9799,0.0201	-1069.02
0.9057,0.0943	-1071.74
0.9493,0.0507	-1070.09
0.9834,0.0166	-1068.90
0.9495,0.0505	-1070.09
0.9891,0.0109	-1068.70
0.9817,0.0183	-1068.95
0.9080,0.0920	-1071.65
0.9579,0.0421	-1069.78
0.9826,0.0174	-1068.92
0.9558,0.0442	-1069.86
0.9896,0.0104	-1068.69
0.9817,0.0183	-1068.95
0.9032,0.0968	-1071.84
0.9556,0.0444	-1069.87
0.9848,0.0152	-1068.85
0.9516,0.0484	-1070.01
0.9866,0.0134	-1068.79
0.9823,0.0177	-1068.93
0.9055,0.0945	-1071.75
0.9603,0.0397	-1069.70
0.9802,0.0198	-1069.01
0.9498,0.0502	-1070.08
0.9861,0.0139	-1068.81
0.9737,0.0263	-1069.23
0.9097,0.0903	-1071.58
0.9709,0.0291	-1069.33
0.9791,0.0209	-1069.04
0.9425,0.0575	-1070.34
0.9839,0.0161	-1068.88
0.9739,0.0261	-1069.22
0.9045,0.0955	-1071.79
0.9635,0.0365	-1069.58
0.9800,0.0200	-1069.01
0.9475,0.0525	-1070.16
0.9826,0.0174	-1068.92
0.9713,0.0287	-1069.31
0.9027,0.0973	-1071.86
0.9613,0.0387	-1069.66
0.9787,0.0213	-1069.06
0.9464,0.0536	-1070.20
0.9822,0.0178	-1068.94
0.9761,0.0239	-1069.15
0.9046,0.0954	-1071.78
0.9558,0.0442	-1069.86
0.9783,0.0217	-1069.07
0.9525,0.0475	-1069.98
0.9758,0.0242	-1069.16
0.9780,0.0220	-1069.08
0.9111,0.0889	-1071.53
0.9572,0.0428	-1069.81
0.9822,0.0178	-1068.94
0.9458,0.0542	-1070.22
0.9737,0.0263	-1069.23
0.9786,0.0214	-1069.06
0.9351,0.0649	-1070.61
0.9567,0.0433	-1069.83
0.9851,0.0149	-1068.84
0.9451,0.0549	-1070.24
0.9775,0.0225	-1069.10
0.9770,0.0230	-1069.12
0.9408,0.0592	-1070.41
0.9560,0.0440	-1069.85
0.9813,0.0187	-1068.97
0.9432,0.0568	-1070.32
0.9743,0.0257	-1069.21
0.9779,0.0221	-1069.08
0.9437,0.0563	-1070.30
0.9635,0.0365	-1069.59
0.9851,0.0149	-1068.84
0.9514,0.0486	-1070.02
0.9763,0.0237	-1069.14
0.9785,0.0215	-1069.06
0.9432,0.0568	-1070.32
0.9629,0.0371	-1069.61
0.9824,0.0176	-1068.93
0.9501,0.0499	-1070.06
0.9831,0.0169	-1068.91
0.9767,0.0233	-1069.13
0.9463,0.0537	-1070.20
0.9646,0.0354	-1069.55
0.9763,0.0237	-1069.14
0.9399,0.0601	-1070.44
0.9828,0.0172	-1068.92
0.9755,0.0245	-1069.17
0.9399,0.0601	-1070.44
0.9494,0.0506	-1070.09
0.9706,0.0294	-1069.34
0.9362,0.0638	-1070.57
0.9800,0.0200	-1069.01
0.9736,0.0264	-1069.23
0.9325,0.0675	-1070.71
0.9406,0.0594	-1070.41
0.9759,0.0241	-1069.15
0.9433,0.0567	-1070.31
0.9814,0.0186	-1068.97
0.9746,0.0254	-1069.20
0.9397,0.0603	-1070.45
0.9422,0.0578	-1070.35
0.9755,0.0245	-1069.17
0.9498,0.0502	-1070.08
0.9803,0.0197	-1069.00
0.9783,0.0217	-1069.07
0.9377,0.0623	-1070.52
0.9511,0.0489	-1070.03
0.9780,0.0220	-1069.08
0.9571,0.0429	-1069.81
0.9861,0.0139	-1068.81
0.9817,0.0183	-1068.95
0.9273,0.0727	-1070.91
0.9586,0.0414	-1069.76
0.9768,0.0232	-1069.12
0.9601,0.0399	-1069.70
0.9829,0.0171	-1068.91
0.9753,0.0247	-1069.17
0.9469,0.0531	-1070.18
0.9645,0.0355	-1069.55
0.9759,0.0241	-1069.15
0.9618,0.0382	-1069.65
0.9834,0.0166	-1068.90
0.9694,0.0306	-1069.38
0.9464,0.0536	-1070.20
0.9688,0.0312	-1069.40
0.9803,0.0197	-1069.00
0.9696,0.0304	-1069.37
0.9833,0.0167	-1068.90
0.9692,0.0308	-1069.39
0.9508,0.0492	-1070.04
0.9739,0.0261	-1069.22
0.9831,0.0169	-1068.91
0.9645,0.0355	-1069.55
0.9867,0.0133	-1068.78
0.9693,0.0307	-1069.38
0.9559,0.0441	-1069.86
0.9725,0.0275	-1069.27
0.9869,0.0131	-1068.78
0.9617,0.0383	-1069.65
0.9859,0.0141	-1068.81
0.9689,0.0311	-1069.40
0.9659,0.0341	-1069.50
0.9698,0.0302	-1069.37
0.9878,0.0122	-1068.75
0.9631,0.0369	-1069.60
0.9857,0.0143	-1068.82
0.9726,0.0274	-1069.27
0.9678,0.0322	-1069.43
0.9670,0.0330	-1069.46
0.9885,0.0115	-1068.72
0.9706,0.0294	-1069.34
0.9853,0.0147	-1068.83
0.9700,0.0300	-1069.36
0.9678,0.0322	-1069.43
0.9667,0.0333	-1069.47
0.9873,0.0127	-1068.76
0.9733,0.0267	-1069.24
0.9851,0.0149	-1068.84
0.9664,0.0336	-1069.49
0.9743,0.0257	-1069.21
0.9618,0.0382	-1069.64
0.9904,0.0096	-1068.66
0.9751,0.0249	-1069.18
0.9869,0.0131	-1068.78
0.9550,0.0450	-1069.89
0.9714,0.0286	-1069.31
0.9587,0.0413	-1069.76
0.9906,0.0094	-1068.65
0.9735,0.0265	-1069.24
0.9872,0.0128	-1068.77
0.9616,0.0384	-1069.65
0.9667,0.0333	-1069.47
0.9491,0.0509	-1070.10
0.9907,0.0093	-1068.65
0.9757,0.0243	-1069.16
0.9843,0.0157	-1068.87
0.9575,0.0425	-1069.80
0.9718,0.0282	-1069.29
0.9505,0.0495	-1070.05
0.9883,0.0117	-1068.73
0.9674,0.0326	-1069.45
0.9835,0.0165	-1068.89
0.9584,0.0416	-1069.77
0.9776,0.0224	-1069.09
0.9586,0.0414	-1069.76
0.9873,0.0127	-1068.76
0.9659,0.0341	-1069.50
0.9823,0.0177	-1068.93
0.9616,0.0384	-1069.65
0.9806,0.0194	-1068.99
0.9534,0.0466	-1069.94
0.9875,0.0125	-1068.76
0.9633,0.0367	-1069.59
0.9831,0.0169	-1068.91
0.9540,0.0460	-1069.92
0.9811,0.0189	-1068.97
0.9524,0.0476	-1069.98
0.9881,0.0119	-1068.74
0.9672,0.0328	-1069.45
0.9820,0.0180	-1068.95
0.9658,0.0342	-1069.51
0.9824,0.0176	-1068.93
0.9408,0.0592	-1070.40
0.9880,0.0120	-1068.74
0.9638,0.0362	-1069.57
0.9765,0.0235	-1069.13
0.9653,0.0347	-1069.52
0.9820,0.0180	-1068.94
0.9487,0.0513	-1070.12
0.9913,0.0087	-1068.63
0.9630,0.0370	-1069.60
0.9830,0.0170	-1068.91
0.9655,0.0345	-1069.51
0.9761,0.0239	-1069.14
0.9465,0.0535	-1070.19
0.9891,0.0109	-1068.70
0.9667,0.0333	-1069.47
0.9828,0.0172	-1068.92
0.9722,0.0278	-1069.28
0.9801,0.0199	-1069.01
0.9444,0.0556	-1070.27
0.9873,0.0127	-1068.76
0.9735,0.0265	-1069.23
0.9803,0.0197	-1069.00
0.9694,0.0306	-1069.38
0.9728,0.0272	-1069.26
0.9429,0.0571	-1070.33
0.9857,0.0143	-1068.82
0.9727,0.0273	-1069.26
0.9849,0.0151	-1068.85
0.9722,0.0278	-1069.28
0.9756,0.0244	-1069.16
0.9543,0.0457	-1069.91
0.9872,0.0128	-1068.77
0.9746,0.0254	-1069.20
0.9853,0.0147	-1068.83
0.9716,0.0284	-1069.30
0.9700,0.0300	-1069.36
0.9711,0.0289	-1069.32
0.9867,0.0133	-1068.78
0.9732,0.0268	-1069.25
0.9840,0.0160	-1068.88
0.9677,0.0323	-1069.44
0.9758,0.0242	-1069.16
0.9688,0.0312	-1069.40
0.9867,0.0133	-1068.78
0.9764,0.0236	-1069.13
0.9777,0.0223	-1069.09
0.9624,0.0376	-1069.63
0.9722,0.0278	-1069.28
0.9678,0.0322	-1069.44
0.9885,0.0115	-1068.72
0.9664,0.0336	-1069.48
0.9771,0.0229	-1069.11
0.9646,0.0354	-1069.55
0.9720,0.0280	-1069.29
0.9681,0.0319	-1069.42
0.9901,0.0099	-1068.67
0.9681,0.0319	-1069.42
0.9811,0.0189	-1068.97
0.9723,0.0277	-1069.28
0.9697,0.0303	-1069.37
0.9687,0.0313	-1069.40
0.9904,0.0096	-1068.66
0.9665,0.0335	-1069.48
0.9807,0.0193	-1068.99
0.9717,0.0283	-1069.30
0.9652,0.0348	-1069.53
0.9767,0.0233	-1069.13
0.9908,0.0092	-1068.64
0.9662,0.0338	-1069.49
0.9855,0.0145	-1068.82
0.9721,0.0279	-1069.28
0.9697,0.0303	-1069.37
0.9736,0.0264	-1069.23
0.9912,0.0088	-1068.63
0.9646,0.0354	-1069.55
0.9846,0.0154	-1068.85
0.9734,0.0266	-1069.24
0.9654,0.0346	-1069.52
0.9774,0.0226	-1069.10
0.9911,0.0089	-1068.63
0.9625,0.0375	-1069.62
0.9807,0.0193	-1068.99
0.9722,0.0278	-1069.28
0.9657,0.0343	-1069.51
0.9772,0.0228	-1069.11
0.9911,0.0089	-1068.64
0.9683,0.0317	-1069.42
0.9840,0.0160	-1068.87
0.9750,0.0250	-1069.18
0.9641,0.0359	-1069.56
0.9796,0.0204	-1069.02
0.9894,0.0106	-1068.69
0.9638,0.0362	-1069.57
0.9830,0.0170	-1068.91
0.9787,0.0213	-1069.06
0.9674,0.0326	-1069.45
0.9755,0.0245	-1069.17
0.9894,0.0106	-1068.69
0.9627,0.0373	-1069.61
0.9867,0.0133	-1068.78
0.9800,0.0200	-1069.01
0.9720,0.0280	-1069.29
0.9723,0.0277	-1069.28
0.9871,0.0129	-1068.77
0.9614,0.0386	-1069.66
0.9870,0.0130	-1068.78
0.9801,0.0199	-1069.01
0.9672,0.0328	-1069.46
0.9696,0.0304	-1069.37
0.9894,0.0106	-1068.69
0.9644,0.0356	-1069.55
0.9844,0.0156	-1068.86
0.9775,0.0225	-1069.10
0.9680,0.0320	-1069.43
0.9669,0.0331	-1069.47
0.9885,0.0115	-1068.72
0.9559,0.0441	-1069.86
0.9822,0.0178	-1068.94
0.9784,0.0216	-1069.07
0.9713,0.0287	-1069.31
0.9657,0.0343	-1069.51
0.9866,0.0134	-1068.79
0.9518,0.0482	-1070.00
0.9795,0.0205	-1069.03
0.9823,0.0177	-1068.93
0.9647,0.0353	-1069.54
0.9672,0.0328	-1069.46
0.9859,0.0141	-1068.81
0.9524,0.0476	-1069.98
0.9808,0.0192	-1068.98
0.9884,0.0116	-1068.73
0.9655,0.0345	-1069.51
0.9720,0.0280	-1069.29
0.9898,0.0102	-1068.68
0.9489,0.0511	-1070.11
0.9837,0.0163	-1068.89
0.9884,0.0116	-1068.73
0.9685,0.0315	-1069.41
0.9733,0.0267	-1069.24
0.9916,0.0084	-1068.62
0.9431,0.0569	-1070.32
0.9841,0.0159	-1068.87
0.9901,0.0099	-1068.67
0.9703,0.0297	-1069.35
0.9668,0.0332	-1069.47
0.9905,0.0095	-1068.66
0.9464,0.0536	-1070.20
0.9862,0.0138	-1068.80
0.9895,0.0105	-1068.69
0.9746,0.0254	-1069.20
0.9718,0.0282	-1069.30
0.9893,0.0107	-1068.70
0.9472,0.0528	-1070.17
0.9863,0.0137	-1068.80
0.9891,0.0109	-1068.70
0.9725,0.0275	-1069.27
0.9720,0.0280	-1069.29
0.9871,0.0129	-1068.77
0.9556,0.0444	-1069.87
0.9897,0.0103	-1068.68
0.9871,0.0129	-1068.77
0.9790,0.0210	-1069.05
0.9755,0.0245	-1069.17
0.9840,0.0160	-1068.87
0.9548,0.0452	-1069.89
0.9887,0.0113	-1068.72
0.9883,0.0117	-1068.73
0.9755,0.0245	-1069.17
0.9762,0.0238	-1069.14
0.9803,0.0197	-1069.00
0.9474,0.0526	-1070.16
0.9876,0.0124	-1068.75
0.9885,0.0115	-1068.72
0.9782,0.0218	-1069.08
0.9783,0.0217	-1069.07
0.9832,0.0168	-1068.90
0.9482,0.0518	-1070.13
0.9879,0.0121	-1068.74
0.9906,0.0094	-1068.65
0.9769,0.0231	-1069.12
0.9792,0.0208	-1069.04
0.9840,0.0160	-1068.88
0.9407,0.0593	-1070.41
0.9860,0.0140	-1068.81
0.9915,0.0085	-1068.62
0.9778,0.0222	-1069.09
0.9781,0.0219	-1069.08
0.9832,0.0168	-1068.90
0.9415,0.0585	-1070.38
0.9850,0.0150	-1068.84
0.9929,0.0071	-1068.58
0.9789,0.0211	-1069.05
0.9739,0.0261	-1069.22
0.9848,0.0152	-1068.85
0.9362,0.0638	-1070.58
0.9793,0.0207	-1069.03
0.9937,0.0063	-1068.55
0.9820,0.0180	-1068.94
0.9728,0.0272	-1069.26
0.9858,0.0142	-1068.81
0.9426,0.0574	-1070.34
0.9803,0.0197	-1069.00
0.9938,0.0062	-1068.55
0.9836,0.0164	-1068.89
0.9729,0.0271	-1069.26
0.9840,0.0160	-1068.88
0.9593,0.0407	-1069.73
0.9814,0.0186	-1068.96
0.9938,0.0062	-1068.54
0.9840,0.0160	-1068.88
0.9758,0.0242	-1069.16
0.9827,0.0173	-1068.92
0.9619,0.0381	-1069.64
0.9850,0.0150	-1068.84
0.9938,0.0062	-1068.55
0.9772,0.0228	-1069.11
0.9730,0.0270	-1069.25
0.9852,0.0148	-1068.84
0.9739,0.0261	-1069.22
0.9844,0.0156	-1068.86
0.9928,0.0072	-1068.58
0.9755,0.0245	-1069.17
0.9758,0.0242	-1069.16
0.9867,0.0133	-1068.78
0.9784,0.0216	-1069.07
0.9809,0.0191	-1068.98
0.9930,0.0070	-1068.57
0.9730,0.0270	-1069.25
0.9656,0.0344	-1069.51
0.9830,0.0170	-1068.91
0.9755,0.0245	-1069.17
0.9816,0.0184	-1068.96
0.9935,0.0065	-1068.56
0.9763,0.0237	-1069.14
0.9680,0.0320	-1069.43
0.9758,0.0242	-1069.16
0.9798,0.0202	-1069.02
0.9844,0.0156	-1068.86
0.9951,0.0049	-1068.50
0.9799,0.0201	-1069.02
0.9670,0.0330	-1069.46
0.9700,0.0300	-1069.36
0.9715,0.0285	-1069.31
0.9856,0.0144	-1068.82
0.9955,0.0045	-1068.49
0.9841,0.0159	-1068.87
0.9692,0.0308	-1069.39
0.9761,0.0239	-1069.15
0.9729,0.0271	-1069.26
0.9891,0.0109	-1068.70
0.9946,0.0054	-1068.52
0.9828,0.0172	-1068.92
0.9668,0.0332	-1069.47
0.9695,0.0305	-1069.37
0.9693,0.0307	-1069.38
0.9873,0.0127	-1068.76
0.9951,0.0049	-1068.50
0.9853,0.0147	-1068.83
0.9698,0.0302	-1069.37
0.9696,0.0304	-1069.37
0.9701,0.0299	-1069.35
0.9881,0.0119	-1068.74
0.9940,0.0060	-1068.54
0.9848,0.0152	-1068.85
0.9699,0.0301	-1069.36
0.9700,0.0300	-1069.36
0.9765,0.0235	-1069.13
0.9895,0.0105	-1068.69
0.9941,0.0059	-1068.54
0.9865,0.0135	-1068.79
0.9682,0.0318	-1069.42
0.9735,0.0265	-1069.24
0.9792,0.0208	-1069.04
0.9891,0.0109	-1068.70
0.9929,0.0071	-1068.57
0.9872,0.0128	-1068.77
0.9710,0.0290	-1069.32
0.9789,0.0211	-1069.05
0.9743,0.0257	-1069.21
0.9880,0.0120	-1068.74
0.9926,0.0074	-1068.58
0.9896,0.0104	-1068.69
0.9715,0.0285	-1069.31
0.9759,0.0241	-1069.15
0.9734,0.0266	-1069.24
0.9874,0.0126	-1068.76
0.9927,0.0073	-1068.58
0.9895,0.0105	-1068.69
0.9768,0.0232	-1069.12
0.9790,0.0210	-1069.05
0.9707,0.0293	-1069.33
0.9906,0.0094	-1068.65
0.9944,0.0056	-1068.53
0.9863,0.0137	-1068.80
0.9803,0.0197	-1069.00
0.9733,0.0267	-1069.24
0.9735,0.0265	-1069.24
0.9928,0.0072	-1068.58
0.9945,0.0055	-1068.52
0.9866,0.0134	-1068.79
0.9793,0.0207	-1069.04
0.9762,0.0238	-1069.14
0.9743,0.0257	-1069.21
0.9930,0.0070	-1068.57
0.9930,0.0070	-1068.57
0.9854,0.0146	-1068.83
0.9764,0.0236	-1069.14
0.9766,0.0234	-1069.13
0.9724,0.0276	-1069.28
0.9935,0.0065	-1068.55
0.9933,0.0067	-1068.56
0.9810,0.0190	-1068.98
0.9749,0.0251	-1069.19
0.9784,0.0216	-1069.07
0.9732,0.0268	-1069.25
0.9934,0.0066	-1068.56
0.9931,0.0069	-1068.57
0.9797,0.0203	-1069.02
0.9766,0.0234	-1069.13
0.9786,0.0214	-1069.06
0.9754,0.0246	-1069.17
0.9934,0.0066	-1068.56
0.9943,0.0057	-1068.53
0.9786,0.0214	-1069.06
0.9822,0.0178	-1068.94
0.9771,0.0229	-1069.11
0.9734,0.0266	-1069.24
0.9952,0.0048	-1068.50
0.9953,0.0047	-1068.50
0.9798,0.0202	-1069.02
0.9836,0.0164	-1068.89
0.9806,0.0194	-1068.99
0.9692,0.0308	-1069.38
0.9937,0.0063	-1068.55
0.9945,0.0055	-1068.52
0.9813,0.0187	-1068.97
0.9840,0.0160	-1068.88
0.9759,0.0241	-1069.15
0.9667,0.0333	-1069.47
0.9935,0.0065	-1068.56
0.9935,0.0065	-1068.56
0.9822,0.0178	-1068.94
0.9853,0.0147	-1068.83
0.9711,0.0289	-1069.32
0.9578,0.0422	-1069.79
0.9941,0.0059	-1068.54
0.9924,0.0076	-1068.59
0.9814,0.0186	-1068.96
0.9849,0.0151	-1068.85
0.9662,0.0338	-1069.49
0.9503,0.0497	-1070.06
0.9935,0.0065	-1068.56
0.9918,0.0082	-1068.61
0.9825,0.0175	-1068.93
0.9831,0.0169	-1068.91
0.9612,0.0388	-1069.67
0.9587,0.0413	-1069.75
0.9908,0.0092	-1068.65
0.9913,0.0087	-1068.63
0.9838,0.0162	-1068.88
0.9823,0.0177	-1068.93
0.9612,0.0388	-1069.67
0.9577,0.0423	-1069.79
0.9921,0.0079	-1068.60
0.9923,0.0077	-1068.59
0.9837,0.0163	-1068.89
0.9844,0.0156	-1068.86
0.9595,0.0405	-1069.73
0.9497,0.0503	-1070.08
0.9921,0.0079	-1068.60
0.9931,0.0069	-1068.57
0.9851,0.0149	-1068.84
0.9849,0.0151	-1068.84
0.9663,0.0337	-1069.49
0.9406,0.0594	-1070.41
0.9921,0.0079	-1068.60
0.9931,0.0069	-1068.57
0.9844,0.0156	-1068.86
0.9882,0.0118	-1068.73
0.9710,0.0290	-1069.32
0.9476,0.0524	-1070.16
0.9884,0.0116	-1068.73
0.9911,0.0089	-1068.64
0.9839,0.0161	-1068.88
0.9903,0.0097	-1068.66
0.9728,0.0272	-1069.26
0.9401,0.0599	-1070.43
0.9891,0.0109	-1068.70
0.9903,0.0097	-1068.66
0.9839,0.0161	-1068.88
0.9890,0.0110	-1068.71
0.9706,0.0294	-1069.34
0.9504,0.0496	-1070.05
0.9920,0.0080	-1068.61
0.9896,0.0104	-1068.68
0.9872,0.0128	-1068.77
0.9865,0.0135	-1068.79
0.9779,0.0221	-1069.08
0.9593,0.0407	-1069.73
0.9937,0.0063	-1068.55
0.9901,0.0099	-1068.67
0.9868,0.0132	-1068.78
0.9877,0.0123	-1068.75
0.9816,0.0184	-1068.96
0.9664,0.0336	-1069.48
0.9942,0.0058	-1068.53
0.9908,0.0092	-1068.65
0.9885,0.0115	-1068.72
0.9893,0.0107	-1068.70
0.9776,0.0224	-1069.09
0.9673,0.0327	-1069.45
0.9945,0.0055	-1068.52
0.9915,0.0085	-1068.62
0.9898,0.0102	-1068.68
0.9896,0.0104	-1068.69
0.9817,0.0183	-1068.96
0.9561,0.0439	-1069.85
0.9943,0.0057	-1068.53
0.9897,0.0103	-1068.68
0.9891,0.0109	-1068.70
0.9887,0.0113	-1068.72
0.9837,0.0163	-1068.89
0.9640,0.0360	-1069.57
0.9936,0.0064	-1068.55
0.9907,0.0093	-1068.65
0.9869,0.0131	-1068.78
0.9894,0.0106	-1068.69
0.9859,0.0141	-1068.81
0.9637,0.0363	-1069.58
0.9945,0.0055	-1068.52
0.9904,0.0096	-1068.66
0.9841,0.0159	-1068.87
0.9898,0.0102	-1068.68
0.9887,0.0113	-1068.72
0.9644,0.0356	-1069.55
0.9953,0.0047	-1068.50
0.9894,0.0106	-1068.69
0.9775,0.0225	-1069.10
0.9883,0.0117	-1068.73
0.9890,0.0110	-1068.71
0.9660,0.0340	-1069.50
0.9955,0.0045	-1068.49
0.9836,0.0164	-1068.89
0.9704,0.0296	-1069.35
0.9877,0.0123	-1068.75
0.9882,0.0118	-1068.73
0.9657,0.0343	-1069.51
0.9944,0.0056	-1068.52
0.9822,0.0178	-1068.94
0.9732,0.0268	-1069.25
0.9908,0.0092	-1068.65
0.9872,0.0128	-1068.77
0.9704,0.0296	-1069.34
0.9953,0.0047	-1068.50
0.9816,0.0184	-1068.96
0.9659,0.0341	-1069.50
0.9875,0.0125	-1068.76
0.9848,0.0152	-1068.85
0.9658,0.0342	-1069.51
0.9956,0.0044	-1068.49
0.9856,0.0144	-1068.82
0.9666,0.0334	-1069.48
0.9887,0.0113	-1068.72
0.9848,0.0152	-1068.85
0.9720,0.0280	-1069.29
0.9960,0.0040	-1068.47
0.9885,0.0115	-1068.72
0.9674,0.0326	-1069.45
0.9851,0.0149	-1068.84
0.9860,0.0140	-1068.81
0.9662,0.0338	-1069.49
0.9956,0.0044	-1068.49
0.9877,0.0123	-1068.75
0.9663,0.0337	-1069.49
0.9822,0.0178	-1068.94
0.9844,0.0156	-1068.86
0.9717,0.0283	-1069.30
0.9959,0.0041	-1068.47
0.9890,0.0110	-1068.71
0.9616,0.0384	-1069.65
0.9843,0.0157	-1068.87
0.9822,0.0178	-1068.94
0.9659,0.0341	-1069.50
0.9944,0.0056	-1068.53
0.9917,0.0083	-1068.62
0.9630,0.0370	-1069.60
0.9851,0.0149	-1068.84
0.9788,0.0212	-1069.05
0.9688,0.0312	-1069.40
0.9933,0.0067	-1068.56
0.9919,0.0081	-1068.61
0.9594,0.0406	-1069.73
0.9810,0.0190	-1068.98
0.9785,0.0215	-1069.06
0.9658,0.0342	-1069.50
0.9916,0.0084	-1068.62
0.9920,0.0080	-1068.61
0.9640,0.0360	-1069.57
0.9843,0.0157	-1068.87
0.9830,0.0170	-1068.91
0.9619,0.0381	-1069.64
0.9924,0.0076	-1068.59
0.9939,0.0061	-1068.54
0.9744,0.0256	-1069.21
0.9779,0.0221	-1069.08
0.9838,0.0162	-1068.88
0.9539,0.0461	-1069.93
0.9921,0.0079	-1068.60
0.9936,0.0064	-1068.55
0.9762,0.0238	-1069.14
0.9795,0.0205	-1069.03
0.9813,0.0187	-1068.97
0.9572,0.0428	-1069.81
0.9920,0.0080	-1068.60
0.9939,0.0061	-1068.54
0.9729,0.0271	-1069.26
0.9790,0.0210	-1069.05
0.9810,0.0190	-1068.98
0.9423,0.0577	-1070.35
0.9911,0.0089	-1068.64
0.9919,0.0081	-1068.61
0.9760,0.0240	-1069.15
0.9723,0.0277	-1069.28
0.9796,0.0204	-1069.03
0.9478,0.0522	-1070.15
0.9920,0.0080	-1068.61
0.9923,0.0077	-1068.59
0.9778,0.0222	-1069.09
0.9696,0.0304	-1069.37
0.9804,0.0196	-1069.00
0.9464,0.0536	-1070.20
0.9888,0.0112	-1068.71
0.9927,0.0073	-1068.58
0.9811,0.0189	-1068.98
0.9747,0.0253	-1069.19
0.9820,0.0180	-1068.94
0.9501,0.0499	-1070.06
0.9919,0.0081	-1068.61
0.9931,0.0069	-1068.57
0.9891,0.0109	-1068.70
0.9688,0.0312	-1069.40
0.9821,0.0179	-1068.94
0.9585,0.0415	-1069.76
0.9934,0.0066	-1068.56
0.9944,0.0056	-1068.53
0.9920,0.0080	-1068.61
0.9731,0.0269	-1069.25
0.9832,0.0168	-1068.90
0.9593,0.0407	-1069.74
0.9941,0.0059	-1068.54
0.9952,0.0048	-1068.50
0.9924,0.0076	-1068.59
0.9671,0.0329	-1069.46
0.9828,0.0172	-1068.92
0.9590,0.0410	-1069.74
0.9943,0.0057	-1068.53
0.9946,0.0054	-1068.52
0.9904,0.0096	-1068.66
0.9629,0.0371	-1069.61
0.9802,0.0198	-1069.01
0.9510,0.0490	-1070.03
0.9952,0.0048	-1068.50
0.9942,0.0058	-1068.53
0.9905,0.0095	-1068.66
0.9558,0.0442	-1069.86
0.9781,0.0219	-1069.08
0.9493,0.0507	-1070.09
0.9956,0.0044	-1068.48
0.9961,0.0039	-1068.47
0.9905,0.0095	-1068.66
0.9596,0.0404	-1069.72
0.9814,0.0186	-1068.96
0.9629,0.0371	-1069.61
0.9954,0.0046	-1068.49
0.9952,0.0048	-1068.50
0.9936,0.0064	-1068.55
0.9558,0.0442	-1069.86
0.9817,0.0183	-1068.95
0.9587,0.0413	-1069.76
0.9931,0.0069	-1068.57
0.9958,0.0042	-1068.48
0.9925,0.0075	-1068.59
0.9723,0.0277	-1069.28
0.9846,0.0154	-1068.86
0.9602,0.0398	-1069.70
0.9939,0.0061	-1068.54
0.9956,0.0044	-1068.49
0.9907,0.0093	-1068.65
0.9715,0.0285	-1069.30
0.9828,0.0172	-1068.92
0.9557,0.0443	-1069.86
0.9936,0.0064	-1068.55
0.9951,0.0049	-1068.50
0.9916,0.0084	-1068.62
0.9733,0.0267	-1069.24
0.9821,0.0179	-1068.94
0.9525,0.0475	-1069.98
0.9915,0.0085	-1068.62
0.9956,0.0044	-1068.48
0.9919,0.0081	-1068.61
0.9751,0.0249	-1069.18
0.9842,0.0158	-1068.87
0.9438,0.0562	-1070.30
0.9906,0.0094	-1068.65
0.9948,0.0052	-1068.51
0.9896,0.0104	-1068.69
0.9694,0.0306	-1069.38
0.9819,0.0181	-1068.95
0.9265,0.0735	-1070.94
0.9911,0.0089	-1068.64
0.9955,0.0045	-1068.49
0.9916,0.0084	-1068.62
0.9734,0.0266	-1069.24
0.9851,0.0149	-1068.84
0.9145,0.0855	-1071.40
0.9915,0.0085	-1068.62
0.9957,0.0043	-1068.48
0.9901,0.0099	-1068.67
0.9780,0.0220	-1069.08
0.9861,0.0139	-1068.80
0.9187,0.0813	-1071.24
0.9932,0.0068	-1068.57
0.9947,0.0053	-1068.52
0.9878,0.0122	-1068.75
0.9768,0.0232	-1069.12
0.9878,0.0122	-1068.75
0.9007,0.0993	-1071.94
0.9920,0.0080	-1068.61
0.9947,0.0053	-1068.52
0.9874,0.0126	-1068.76
0.9817,0.0183	-1068.95
0.9871,0.0129	-1068.77
0.9019,0.0981	-1071.89
0.9928,0.0072	-1068.58
0.9951,0.0049	-1068.50
0.9871,0.0129	-1068.77
0.9766,0.0234	-1069.13
0.9876,0.0124	-1068.75
0.8956,0.1044	-1072.15
0.9930,0.0070	-1068.57
0.9950,0.0050	-1068.51
0.9870,0.0130	-1068.77
0.9839,0.0161	-1068.88
0.9877,0.0123	-1068.75
0.8825,0.1175	-1072.68
0.9939,0.0061	-1068.54
0.9958,0.0042	-1068.48
0.9894,0.0106	-1068.69
0.9838,0.0162	-1068.88
0.9895,0.0105	-1068.69
0.9035,0.0965	-1071.83
0.9952,0.0048	-1068.50
0.9956,0.0044	-1068.49
0.9892,0.0108	-1068.70
0.9808,0.0192	-1068.98
0.9881,0.0119	-1068.74
0.9070,0.0930	-1071.69
0.9958,0.0042	-1068.48
0.9957,0.0043	-1068.48
0.9895,0.0105	-1068.69
0.9805,0.0195	-1069.00
0.9888,0.0112	-1068.71
0.9144,0.0856	-1071.40
0.9951,0.0049	-1068.50
0.9948,0.0052	-1068.51
0.9873,0.0127	-1068.76
0.9835,0.0165	-1068.89
0.9876,0.0124	-1068.75
0.9031,0.0969	-1071.85
0.9936,0.0064	-1068.55
0.9952,0.0048	-1068.50
0.9876,0.0124	-1068.75
0.9830,0.0170	-1068.91
0.9894,0.0106	-1068.69
0.9091,0.0909	-1071.61
0.9943,0.0057	-1068.53
0.9947,0.0053	-1068.52
0.9884,0.0116	-1068.73
0.9835,0.0165	-1068.89
0.9908,0.0092	-1068.65
0.9166,0.0834	-1071.32
0.9937,0.0063	-1068.55
0.9929,0.0071	-1068.58
0.9861,0.0139	-1068.80
0.9864,0.0136	-1068.79
0.9926,0.0074	-1068.58
0.9097,0.0903	-1071.59
0.9948,0.0052	-1068.51
0.9930,0.0070	-1068.57
0.9884,0.0116	-1068.73
0.9884,0.0116	-1068.73
0.9920,0.0080	-1068.61
0.9199,0.0801	-1071.19
0.9937,0.0063	-1068.55
0.9944,0.0056	-1068.53
0.9908,0.0092	-1068.64
0.9907,0.0093	-1068.65
0.9918,0.0082	-1068.61
0.9202,0.0798	-1071.18
0.9929,0.0071	-1068.58
0.9952,0.0048	-1068.50
0.9902,0.0098	-1068.67
0.9903,0.0097	-1068.66
0.9920,0.0080	-1068.61
0.9183,0.0817	-1071.25
0.9935,0.0065	-1068.55
0.9934,0.0066	-1068.56
0.9900,0.0100	-1068.67
0.9870,0.0130	-1068.78
0.9929,0.0071	-1068.58
0.9273,0.0727	-1070.91
0.9935,0.0065	-1068.56
0.9943,0.0057	-1068.53
0.9915,0.0085	-1068.62
0.9876,0.0124	-1068.75
0.9937,0.0063	-1068.55
0.9306,0.0694	-1070.79
0.9936,0.0064	-1068.55
0.9943,0.0057	-1068.53
0.9918,0.0082	-1068.61
0.9911,0.0089	-1068.64
0.9914,0.0086	-1068.63
0.9389,0.0611	-1070.47
0.9939,0.0061	-1068.54
0.9947,0.0053	-1068.52
0.9915,0.0085	-1068.62
0.9922,0.0078	-1068.60
0.9908,0.0092	-1068.65
0.9394,0.0606	-1070.46
0.9941,0.0059	-1068.54
0.9946,0.0054	-1068.52
0.9943,0.0057	-1068.53
0.9929,0.0071	-1068.57
0.9913,0.0087	-1068.63
0.9284,0.0716	-1070.86
0.9926,0.0074	-1068.59
0.9953,0.0047	-1068.49
0.9915,0.0085	-1068.62
0.9918,0.0082	-1068.61
0.9932,0.0068	-1068.57
0.9198,0.0802	-1071.19
0.9934,0.0066	-1068.56
0.9951,0.0049	-1068.50
0.9926,0.0074	-1068.59
0.9891,0.0109	-1068.70
0.9929,0.0071	-1068.58
0.9326,0.0674	-1070.71
0.9949,0.0051	-1068.51
0.9943,0.0057	-1068.53
0.9939,0.0061	-1068.54
0.9905,0.0095	-1068.66
0.9932,0.0068	-1068.57
0.9372,0.0628	-1070.54
0.9945,0.0055	-1068.52
0.9940,0.0060	-1068.54
0.9936,0.0064	-1068.55
0.9923,0.0077	-1068.60
0.9930,0.0070	-1068.57
0.9540,0.0460	-1069.93
0.9935,0.0065	-1068.56
0.9953,0.0047	-1068.50
0.9938,0.0062	-1068.55
0.9931,0.0069	-1068.57
0.9897,0.0103	-1068.68
0.9527,0.0473	-1069.97
0.9936,0.0064	-1068.55
0.9955,0.0045	-1068.49
0.9923,0.0077	-1068.60
0.9937,0.0063	-1068.55
0.9916,0.0084	-1068.62
0.9526,0.0474	-1069.97
0.9921,0.0079	-1068.60
0.9950,0.0050	-1068.51
0.9926,0.0074	-1068.59
0.9947,0.0053	-1068.52
0.9918,0.0082	-1068.61
0.9606,0.0394	-1069.69
0.9918,0.0082	-1068.61
0.9948,0.0052	-1068.51
0.9927,0.0073	-1068.58
0.9934,0.0066	-1068.56
0.9937,0.0063	-1068.55
0.9606,0.0394	-1069.69
0.9920,0.0080	-1068.61
0.9924,0.0076	-1068.59
0.9907,0.0093	-1068.65
0.9918,0.0082	-1068.61
0.9930,0.0070	-1068.57
0.9630,0.0370	-1069.60
0.9929,0.0071	-1068.57
0.9906,0.0094	-1068.65
0.9898,0.0102	-1068.68
0.9904,0.0096	-1068.66
0.9921,0.0079	-1068.60
0.9570,0.0430	-1069.82
0.9918,0.0082	-1068.61
0.9898,0.0102	-1068.68
0.9900,0.0100	-1068.67
0.9895,0.0105	-1068.69
0.9935,0.0065	-1068.56
0.9562,0.0438	-1069.84
0.9915,0.0085	-1068.62
0.9889,0.0111	-1068.71
0.9905,0.0095	-1068.66
0.9888,0.0112	-1068.71
0.9931,0.0069	-1068.57
0.9468,0.0532	-1070.19
0.9909,0.0091	-1068.64
0.9886,0.0114	-1068.72
0.9893,0.0107	-1068.70
0.9906,0.0094	-1068.65
0.9937,0.0063	-1068.55
0.9466,0.0534	-1070.19
0.9896,0.0104	-1068.69
0.9878,0.0122	-1068.75
0.9920,0.0080	-1068.61
0.9903,0.0097	-1068.66
0.9918,0.0082	-1068.61
0.9515,0.0485	-1070.01
0.9902,0.0098	-1068.67
0.9897,0.0103	-1068.68
0.9911,0.0089	-1068.64
0.9893,0.0107	-1068.70
0.9928,0.0072	-1068.58
0.9450,0.0550	-1070.25
0.9885,0.0115	-1068.72
0.9899,0.0101	-1068.68
0.9891,0.0109	-1068.70
0.9871,0.0129	-1068.77
0.9924,0.0076	-1068.59
0.9403,0.0597	-1070.42
0.9871,0.0129	-1068.77
0.9888,0.0112	-1068.71
0.9895,0.0105	-1068.69
0.9856,0.0144	-1068.82
0.9928,0.0072	-1068.58
0.9512,0.0488	-1070.02
0.9839,0.0161	-1068.88
0.9882,0.0118	-1068.73
0.9893,0.0107	-1068.70
0.9851,0.0149	-1068.84
0.9927,0.0073	-1068.58
0.9498,0.0502	-1070.07
0.9785,0.0215	-1069.07
0.9876,0.0124	-1068.75
0.9896,0.0104	-1068.69
0.9838,0.0162	-1068.88
0.9926,0.0074	-1068.59
0.9450,0.0550	-1070.25
0.9789,0.0211	-1069.05
0.9881,0.0119	-1068.74
0.9910,0.0090	-1068.64
0.9832,0.0168	-1068.90
0.9914,0.0086	-1068.63
0.9399,0.0601	-1070.44
0.9830,0.0170	-1068.91
0.9859,0.0141	-1068.81
0.9919,0.0081	-1068.61
0.9794,0.0206	-1069.03
0.9917,0.0083	-1068.62
0.9464,0.0536	-1070.20
0.9792,0.0208	-1069.04
0.9876,0.0124	-1068.75
0.9888,0.0112	-1068.71
0.9805,0.0195	-1068.99
0.9946,0.0054	-1068.52
0.9490,0.0510	-1070.10
0.9741,0.0259	-1069.21
0.9891,0.0109	-1068.70
0.9899,0.0101	-1068.68
0.9794,0.0206	-1069.03
0.9951,0.0049	-1068.50
0.9483,0.0517	-1070.13
0.9739,0.0261	-1069.22
0.9903,0.0097	-1068.66
0.9898,0.0102	-1068.68
0.9794,0.0206	-1069.03
0.9941,0.0059	-1068.53
0.9326,0.0674	-1070.71
0.9765,0.0235	-1069.13
0.9863,0.0137	-1068.80
0.9912,0.0088	-1068.63
0.9810,0.0190	-1068.98
0.9952,0.0048	-1068.50
0.9361,0.0639	-1070.58
0.9817,0.0183	-1068.95
0.9825,0.0175	-1068.93
0.9889,0.0111	-1068.71
0.9844,0.0156	-1068.86
0.9944,0.0056	-1068.52
0.9271,0.0729	-1070.92
0.9863,0.0137	-1068.80
0.9836,0.0164	-1068.89
0.9861,0.0139	-1068.80
0.9835,0.0165	-1068.89
0.9962,0.0038	-1068.46
0.9320,0.0680	-1070.73
0.9883,0.0117	-1068.73
0.9805,0.0195	-1069.00
0.9889,0.0111	-1068.71
0.9874,0.0126	-1068.76
0.9960,0.0040	-1068.47
0.9315,0.0685	-1070.75
0.9882,0.0118	-1068.73
0.9794,0.0206	-1069.03
0.9867,0.0133	-1068.79
0.9885,0.0115	-1068.72
0.9963,0.0037	-1068.46
0.9426,0.0574	-1070.34
0.9876,0.0124	-1068.75
0.9762,0.0238	-1069.14
0.9856,0.0144	-1068.82
0.9866,0.0134	-1068.79
0.9961,0.0039	-1068.47
0.9447,0.0553	-1070.26
0.9821,0.0179	-1068.94
0.9808,0.0192	-1068.99
0.9835,0.0165	-1068.89
0.9850,0.0150	-1068.84
0.9953,0.0047	-1068.50
0.9477,0.0523	-1070.15
0.9851,0.0149	-1068.84
0.9804,0.0196	-1069.00
0.9837,0.0163	-1068.88
0.9873,0.0127	-1068.77
0.9957,0.0043	-1068.48
0.9583,0.0417	-1069.77
0.9835,0.0165	-1068.89
0.9761,0.0239	-1069.15
0.9840,0.0160	-1068.88
0.9829,0.0171	-1068.91
0.9964,0.0036	-1068.46
0.9637,0.0363	-1069.58
0.9883,0.0117	-1068.73
0.9756,0.0244	-1069.16
0.9842,0.0158	-1068.87
0.9857,0.0143	-1068.82
0.9962,0.0038	-1068.46
0.9653,0.0347	-1069.52
0.9897,0.0103	-1068.68
0.9746,0.0254	-1069.20
0.9830,0.0170	-1068.91
0.9861,0.0139	-1068.80
0.9958,0.0042	-1068.48
0.9675,0.0325	-1069.44
0.9901,0.0099	-1068.67
0.9705,0.0295	-1069.34
0.9860,0.0140	-1068.81
0.9830,0.0170	-1068.91
0.9947,0.0053	-1068.51
0.9663,0.0337	-1069.49
0.9898,0.0102	-1068.68
0.9813,0.0187	-1068.97
0.9850,0.0150	-1068.84
0.9832,0.0168	-1068.90
0.9945,0.0055	-1068.52
0.9579,0.0421	-1069.78
0.9879,0.0121	-1068.75
0.9801,0.0199	-1069.01
0.9822,0.0178	-1068.94
0.9806,0.0194	-1068.99
0.9947,0.0053	-1068.52
0.9661,0.0339	-1069.49
0.9865,0.0135	-1068.79
0.9843,0.0157	-1068.87
0.9814,0.0186	-1068.97
0.9830,0.0170	-1068.91
0.9935,0.0065	-1068.56
0.9671,0.0329	-1069.46
0.9868,0.0132	-1068.78
0.9868,0.0132	-1068.78
0.9836,0.0164	-1068.89
0.9832,0.0168	-1068.90
0.9940,0.0060	-1068.54
0.9657,0.0343	-1069.51
0.9881,0.0119	-1068.74
0.9847,0.0153	-1068.85
0.9809,0.0191	-1068.98
0.9856,0.0144	-1068.82
0.9939,0.0061	-1068.54
0.9643,0.0357	-1069.56
0.9867,0.0133	-1068.78
0.9822,0.0178	-1068.94
0.9792,0.0208	-1069.04
0.9873,0.0127	-1068.76
0.9946,0.0054	-1068.52
0.9643,0.0357	-1069.56
0.9889,0.0111	-1068.71
0.9837,0.0163	-1068.89
0.9766,0.0234	-1069.13
0.9890,0.0110	-1068.71
0.9936,0.0064	-1068.55
0.9660,0.0340	-1069.50
0.9869,0.0131	-1068.78
0.9844,0.0156	-1068.86
0.9729,0.0271	-1069.26
0.9901,0.0099	-1068.67
