#isoforms=['ENSG00000101294.SE.1.A.up_ENSG00000101294.SE.1.A.SE1_ENSG00000101294.SE.1.A.dn','ENSG00000101294.SE.1.B.up_ENSG00000101294.SE.1.B.dn']	exon_lens=('ENSG00000101294.SE.1.A.up',99),('ENSG00000101294.SE.1.A.SE1',376),('ENSG00000101294.SE.1.A.dn',89),('ENSG00000101294.SE.1.B.up',99),('ENSG00000101294.SE.1.B.dn',89)	iters=5000	burn_in=500	lag=10	percent_accept=97.40	proposal_type=drift	counts=(0,0):1038,(1,0):447	assigned_counts=0:447	chrom=chr20	strand=+	mRNA_starts=31527484,31527484	mRNA_ends=31545035,31545035
sampled_psi	log_score
0.9306,0.0694	-2750.80
0.9679,0.0321	-2747.33
0.9891,0.0109	-2745.46
0.9748,0.0252	-2746.72
0.9710,0.0290	-2747.05
0.9853,0.0147	-2745.79
0.9387,0.0613	-2750.03
0.9679,0.0321	-2747.33
0.9872,0.0128	-2745.63
0.9758,0.0242	-2746.63
0.9720,0.0280	-2746.97
0.9852,0.0148	-2745.80
0.9510,0.0490	-2748.87
0.9689,0.0311	-2747.24
0.9865,0.0135	-2745.69
0.9777,0.0223	-2746.46
0.9795,0.0205	-2746.30
0.9852,0.0148	-2745.80
0.9564,0.0436	-2748.38
0.9731,0.0269	-2746.86
0.9851,0.0149	-2745.81
0.9804,0.0196	-2746.22
0.9800,0.0200	-2746.25
0.9859,0.0141	-2745.74
0.9594,0.0406	-2748.10
0.9732,0.0268	-2746.86
0.9846,0.0154	-2745.85
0.9859,0.0141	-2745.74
0.9821,0.0179	-2746.07
0.9841,0.0159	-2745.89
0.9691,0.0309	-2747.22
0.9763,0.0237	-2746.58
0.9861,0.0139	-2745.72
0.9887,0.0113	-2745.49
0.9828,0.0172	-2746.01
0.9804,0.0196	-2746.22
0.9721,0.0279	-2746.96
0.9721,0.0279	-2746.95
0.9880,0.0120	-2745.55
0.9882,0.0118	-2745.54
0.9841,0.0159	-2745.90
0.9826,0.0174	-2746.03
0.9717,0.0283	-2746.99
0.9792,0.0208	-2746.33
0.9898,0.0102	-2745.40
0.9875,0.0125	-2745.60
0.9836,0.0164	-2745.94
0.9812,0.0188	-2746.15
0.9680,0.0320	-2747.32
0.9782,0.0218	-2746.41
0.9919,0.0081	-2745.22
0.9870,0.0130	-2745.64
0.9861,0.0139	-2745.72
0.9823,0.0177	-2746.05
0.9713,0.0287	-2747.02
0.9788,0.0212	-2746.37
0.9914,0.0086	-2745.26
0.9836,0.0164	-2745.94
0.9870,0.0130	-2745.64
0.9808,0.0192	-2746.18
0.9684,0.0316	-2747.28
0.9807,0.0193	-2746.19
0.9929,0.0071	-2745.14
0.9858,0.0142	-2745.75
0.9890,0.0110	-2745.47
0.9821,0.0179	-2746.07
0.9705,0.0295	-2747.10
0.9815,0.0185	-2746.12
0.9907,0.0093	-2745.32
0.9863,0.0137	-2745.71
0.9903,0.0097	-2745.36
0.9830,0.0170	-2745.99
0.9701,0.0299	-2747.13
0.9825,0.0175	-2746.03
0.9914,0.0086	-2745.26
0.9829,0.0171	-2746.00
0.9893,0.0107	-2745.45
0.9830,0.0170	-2746.00
0.9692,0.0308	-2747.21
0.9822,0.0178	-2746.06
0.9898,0.0102	-2745.40
0.9797,0.0203	-2746.28
0.9882,0.0118	-2745.54
0.9859,0.0141	-2745.74
0.9658,0.0342	-2747.52
0.9840,0.0160	-2745.91
0.9916,0.0084	-2745.25
0.9836,0.0164	-2745.94
0.9897,0.0103	-2745.41
0.9829,0.0171	-2746.00
0.9725,0.0275	-2746.92
0.9851,0.0149	-2745.81
0.9891,0.0109	-2745.46
0.9887,0.0113	-2745.49
0.9887,0.0113	-2745.50
0.9804,0.0196	-2746.22
0.9701,0.0299	-2747.13
0.9860,0.0140	-2745.73
0.9918,0.0082	-2745.23
0.9904,0.0096	-2745.35
0.9873,0.0127	-2745.61
0.9837,0.0163	-2745.93
0.9651,0.0349	-2747.58
0.9861,0.0139	-2745.72
0.9932,0.0068	-2745.11
0.9887,0.0113	-2745.49
0.9909,0.0091	-2745.31
0.9855,0.0145	-2745.77
0.9623,0.0377	-2747.84
0.9872,0.0128	-2745.63
0.9950,0.0050	-2744.95
0.9869,0.0131	-2745.65
0.9928,0.0072	-2745.14
0.9877,0.0123	-2745.59
0.9647,0.0353	-2747.62
0.9862,0.0138	-2745.71
0.9965,0.0035	-2744.83
0.9861,0.0139	-2745.73
0.9939,0.0061	-2745.05
0.9878,0.0122	-2745.57
0.9598,0.0402	-2748.07
0.9872,0.0128	-2745.62
0.9969,0.0031	-2744.79
0.9887,0.0113	-2745.49
0.9936,0.0064	-2745.07
0.9868,0.0132	-2745.66
0.9595,0.0405	-2748.09
0.9874,0.0126	-2745.61
0.9973,0.0027	-2744.76
0.9871,0.0129	-2745.64
0.9949,0.0051	-2744.96
0.9850,0.0150	-2745.82
0.9489,0.0511	-2749.07
0.9886,0.0114	-2745.51
0.9975,0.0025	-2744.74
0.9895,0.0105	-2745.42
0.9943,0.0057	-2745.01
0.9845,0.0155	-2745.86
0.9540,0.0460	-2748.60
0.9898,0.0102	-2745.40
0.9974,0.0026	-2744.75
0.9868,0.0132	-2745.67
0.9949,0.0051	-2744.96
0.9840,0.0160	-2745.91
0.9535,0.0465	-2748.65
0.9900,0.0100	-2745.39
0.9975,0.0025	-2744.74
0.9846,0.0154	-2745.85
0.9949,0.0051	-2744.96
0.9839,0.0161	-2745.91
0.9599,0.0401	-2748.06
0.9869,0.0131	-2745.65
0.9975,0.0025	-2744.74
0.9866,0.0134	-2745.68
0.9969,0.0031	-2744.79
0.9846,0.0154	-2745.85
0.9598,0.0402	-2748.06
0.9877,0.0123	-2745.59
0.9978,0.0022	-2744.71
0.9870,0.0130	-2745.64
0.9963,0.0037	-2744.85
0.9871,0.0129	-2745.64
0.9569,0.0431	-2748.33
0.9811,0.0189	-2746.16
0.9978,0.0022	-2744.72
0.9848,0.0152	-2745.83
0.9960,0.0040	-2744.87
0.9861,0.0139	-2745.72
0.9620,0.0380	-2747.86
0.9785,0.0215	-2746.38
0.9979,0.0021	-2744.71
0.9847,0.0153	-2745.85
0.9956,0.0044	-2744.90
0.9854,0.0146	-2745.78
0.9704,0.0296	-2747.11
0.9840,0.0160	-2745.90
0.9979,0.0021	-2744.70
0.9795,0.0205	-2746.29
0.9952,0.0048	-2744.94
0.9839,0.0161	-2745.92
0.9703,0.0297	-2747.12
0.9849,0.0151	-2745.83
0.9978,0.0022	-2744.72
0.9785,0.0215	-2746.39
0.9953,0.0047	-2744.93
0.9845,0.0155	-2745.86
0.9653,0.0347	-2747.56
0.9859,0.0141	-2745.74
0.9980,0.0020	-2744.70
0.9738,0.0262	-2746.80
0.9959,0.0041	-2744.87
0.9848,0.0152	-2745.83
0.9700,0.0300	-2747.14
0.9855,0.0145	-2745.77
0.9983,0.0017	-2744.68
0.9747,0.0253	-2746.72
0.9965,0.0035	-2744.82
0.9814,0.0186	-2746.13
0.9645,0.0355	-2747.63
0.9857,0.0143	-2745.76
0.9979,0.0021	-2744.71
0.9691,0.0309	-2747.23
0.9977,0.0023	-2744.72
0.9798,0.0202	-2746.27
0.9607,0.0393	-2747.99
0.9880,0.0120	-2745.56
0.9980,0.0020	-2744.70
0.9797,0.0203	-2746.28
0.9979,0.0021	-2744.70
0.9789,0.0211	-2746.35
0.9657,0.0343	-2747.53
0.9874,0.0126	-2745.61
0.9980,0.0020	-2744.70
0.9811,0.0189	-2746.16
0.9979,0.0021	-2744.70
0.9772,0.0228	-2746.51
0.9687,0.0313	-2747.26
0.9912,0.0088	-2745.28
0.9983,0.0017	-2744.67
0.9838,0.0162	-2745.92
0.9977,0.0023	-2744.72
0.9718,0.0282	-2746.99
0.9681,0.0319	-2747.31
0.9928,0.0072	-2745.14
0.9984,0.0016	-2744.67
0.9857,0.0143	-2745.75
0.9982,0.0018	-2744.68
0.9749,0.0251	-2746.70
0.9666,0.0334	-2747.44
0.9913,0.0087	-2745.27
0.9976,0.0024	-2744.74
0.9871,0.0129	-2745.63
0.9983,0.0017	-2744.67
0.9769,0.0231	-2746.53
0.9691,0.0309	-2747.23
0.9927,0.0073	-2745.15
0.9972,0.0028	-2744.77
0.9894,0.0106	-2745.44
0.9985,0.0015	-2744.66
0.9799,0.0201	-2746.27
0.9683,0.0317	-2747.30
0.9905,0.0095	-2745.34
0.9973,0.0027	-2744.76
0.9918,0.0082	-2745.23
0.9979,0.0021	-2744.70
0.9833,0.0167	-2745.96
0.9639,0.0361	-2747.70
0.9912,0.0088	-2745.28
0.9968,0.0032	-2744.80
0.9931,0.0069	-2745.12
0.9979,0.0021	-2744.71
0.9860,0.0140	-2745.73
0.9630,0.0370	-2747.77
0.9934,0.0066	-2745.09
0.9969,0.0031	-2744.79
0.9902,0.0098	-2745.37
0.9978,0.0022	-2744.72
0.9863,0.0137	-2745.70
0.9611,0.0389	-2747.94
0.9941,0.0059	-2745.03
0.9975,0.0025	-2744.74
0.9902,0.0098	-2745.37
0.9974,0.0026	-2744.75
0.9862,0.0138	-2745.71
0.9629,0.0371	-2747.79
0.9947,0.0053	-2744.98
0.9979,0.0021	-2744.71
0.9889,0.0111	-2745.47
0.9978,0.0022	-2744.71
0.9849,0.0151	-2745.83
0.9645,0.0355	-2747.64
0.9938,0.0062	-2745.05
0.9986,0.0014	-2744.65
0.9906,0.0094	-2745.33
0.9982,0.0018	-2744.68
0.9841,0.0159	-2745.90
0.9682,0.0318	-2747.30
0.9925,0.0075	-2745.17
0.9985,0.0015	-2744.66
0.9913,0.0087	-2745.27
0.9979,0.0021	-2744.71
0.9839,0.0161	-2745.91
0.9703,0.0297	-2747.11
0.9922,0.0078	-2745.20
0.9986,0.0014	-2744.64
0.9915,0.0085	-2745.25
0.9974,0.0026	-2744.75
0.9798,0.0202	-2746.27
0.9720,0.0280	-2746.97
0.9923,0.0077	-2745.19
0.9989,0.0011	-2744.62
0.9929,0.0071	-2745.13
0.9978,0.0022	-2744.72
0.9809,0.0191	-2746.18
0.9777,0.0223	-2746.46
0.9919,0.0081	-2745.22
0.9987,0.0013	-2744.64
0.9933,0.0067	-2745.10
0.9982,0.0018	-2744.68
0.9775,0.0225	-2746.47
0.9787,0.0213	-2746.37
0.9922,0.0078	-2745.19
0.9984,0.0016	-2744.66
0.9939,0.0061	-2745.04
0.9984,0.0016	-2744.67
0.9785,0.0215	-2746.39
0.9827,0.0173	-2746.02
0.9935,0.0065	-2745.08
0.9984,0.0016	-2744.67
0.9937,0.0063	-2745.07
0.9984,0.0016	-2744.67
0.9791,0.0209	-2746.34
0.9775,0.0225	-2746.48
0.9926,0.0074	-2745.16
0.9981,0.0019	-2744.69
0.9947,0.0053	-2744.98
0.9986,0.0014	-2744.64
0.9836,0.0164	-2745.94
0.9777,0.0223	-2746.46
0.9939,0.0061	-2745.05
0.9980,0.0020	-2744.69
0.9942,0.0058	-2745.02
0.9988,0.0012	-2744.63
0.9842,0.0158	-2745.89
0.9801,0.0199	-2746.25
0.9930,0.0070	-2745.13
0.9978,0.0022	-2744.71
0.9944,0.0056	-2745.00
0.9986,0.0014	-2744.64
0.9773,0.0227	-2746.49
0.9802,0.0198	-2746.24
0.9910,0.0090	-2745.29
0.9979,0.0021	-2744.70
0.9944,0.0056	-2745.01
0.9987,0.0013	-2744.64
0.9726,0.0274	-2746.91
0.9794,0.0206	-2746.31
0.9913,0.0087	-2745.27
0.9978,0.0022	-2744.72
0.9942,0.0058	-2745.02
0.9982,0.0018	-2744.68
0.9755,0.0245	-2746.65
0.9798,0.0202	-2746.27
0.9886,0.0114	-2745.51
0.9982,0.0018	-2744.68
0.9951,0.0049	-2744.95
0.9982,0.0018	-2744.68
0.9775,0.0225	-2746.48
0.9823,0.0177	-2746.05
0.9854,0.0146	-2745.78
0.9985,0.0015	-2744.65
0.9942,0.0058	-2745.02
0.9985,0.0015	-2744.65
0.9728,0.0272	-2746.89
0.9822,0.0178	-2746.07
0.9831,0.0169	-2745.98
0.9983,0.0017	-2744.68
0.9944,0.0056	-2745.00
0.9989,0.0011	-2744.62
0.9727,0.0273	-2746.90
0.9796,0.0204	-2746.29
0.9813,0.0187	-2746.14
0.9984,0.0016	-2744.66
0.9946,0.0054	-2744.99
0.9986,0.0014	-2744.64
0.9679,0.0321	-2747.33
0.9754,0.0246	-2746.66
0.9811,0.0189	-2746.16
0.9986,0.0014	-2744.65
0.9949,0.0051	-2744.96
0.9986,0.0014	-2744.65
0.9647,0.0353	-2747.62
0.9763,0.0237	-2746.58
0.9834,0.0166	-2745.96
0.9988,0.0012	-2744.63
0.9936,0.0064	-2745.08
0.9984,0.0016	-2744.67
0.9625,0.0375	-2747.82
0.9827,0.0173	-2746.01
0.9883,0.0117	-2745.53
0.9986,0.0014	-2744.65
0.9942,0.0058	-2745.02
0.9985,0.0015	-2744.66
0.9638,0.0362	-2747.70
0.9827,0.0173	-2746.02
0.9870,0.0130	-2745.64
0.9990,0.0010	-2744.61
0.9943,0.0057	-2745.01
0.9986,0.0014	-2744.65
0.9587,0.0413	-2748.17
0.9844,0.0156	-2745.87
0.9908,0.0092	-2745.32
0.9987,0.0013	-2744.64
0.9932,0.0068	-2745.11
0.9984,0.0016	-2744.66
0.9576,0.0424	-2748.27
0.9853,0.0147	-2745.79
0.9906,0.0094	-2745.33
0.9985,0.0015	-2744.65
0.9928,0.0072	-2745.14
0.9985,0.0015	-2744.65
0.9575,0.0425	-2748.28
0.9856,0.0144	-2745.76
0.9892,0.0108	-2745.45
0.9986,0.0014	-2744.65
0.9907,0.0093	-2745.33
0.9981,0.0019	-2744.69
0.9620,0.0380	-2747.86
0.9839,0.0161	-2745.92
0.9892,0.0108	-2745.45
0.9983,0.0017	-2744.68
0.9886,0.0114	-2745.50
0.9985,0.0015	-2744.65
0.9603,0.0397	-2748.02
0.9829,0.0171	-2746.00
0.9895,0.0105	-2745.43
0.9981,0.0019	-2744.69
0.9911,0.0089	-2745.29
0.9986,0.0014	-2744.65
0.9592,0.0408	-2748.12
0.9837,0.0163	-2745.93
0.9894,0.0106	-2745.43
0.9983,0.0017	-2744.68
0.9895,0.0105	-2745.43
0.9983,0.0017	-2744.67
0.9715,0.0285	-2747.01
0.9852,0.0148	-2745.80
0.9890,0.0110	-2745.47
0.9979,0.0021	-2744.70
0.9893,0.0107	-2745.45
0.9983,0.0017	-2744.68
0.9642,0.0358	-2747.66
0.9835,0.0165	-2745.95
0.9890,0.0110	-2745.47
0.9981,0.0019	-2744.69
0.9891,0.0109	-2745.46
0.9979,0.0021	-2744.70
0.9634,0.0366	-2747.73
0.9854,0.0146	-2745.78
0.9901,0.0099	-2745.37
0.9981,0.0019	-2744.69
0.9901,0.0099	-2745.38
0.9979,0.0021	-2744.71
0.9540,0.0460	-2748.59
0.9832,0.0168	-2745.97
0.9894,0.0106	-2745.43
0.9978,0.0022	-2744.72
0.9893,0.0107	-2745.45
0.9977,0.0023	-2744.73
0.9509,0.0491	-2748.88
0.9851,0.0149	-2745.81
0.9892,0.0108	-2745.45
0.9976,0.0024	-2744.74
0.9913,0.0087	-2745.27
0.9977,0.0023	-2744.72
0.9562,0.0438	-2748.39
0.9849,0.0151	-2745.83
0.9887,0.0113	-2745.50
0.9982,0.0018	-2744.68
0.9883,0.0117	-2745.53
0.9980,0.0020	-2744.70
0.9542,0.0458	-2748.58
0.9809,0.0191	-2746.18
0.9869,0.0131	-2745.65
0.9980,0.0020	-2744.70
0.9902,0.0098	-2745.36
0.9978,0.0022	-2744.71
0.9555,0.0445	-2748.46
0.9816,0.0184	-2746.11
0.9867,0.0133	-2745.67
0.9978,0.0022	-2744.71
0.9922,0.0078	-2745.20
0.9979,0.0021	-2744.71
0.9596,0.0404	-2748.08
0.9822,0.0178	-2746.06
0.9860,0.0140	-2745.73
0.9978,0.0022	-2744.72
0.9923,0.0077	-2745.18
0.9981,0.0019	-2744.69
0.9621,0.0379	-2747.85
0.9845,0.0155	-2745.86
0.9868,0.0132	-2745.66
0.9975,0.0025	-2744.74
0.9914,0.0086	-2745.27
0.9976,0.0024	-2744.73
0.9663,0.0337	-2747.47
0.9868,0.0132	-2745.66
0.9849,0.0151	-2745.82
0.9971,0.0029	-2744.77
0.9918,0.0082	-2745.23
0.9975,0.0025	-2744.74
0.9755,0.0245	-2746.65
0.9870,0.0130	-2745.65
0.9859,0.0141	-2745.74
0.9970,0.0030	-2744.78
0.9936,0.0064	-2745.07
0.9973,0.0027	-2744.75
0.9794,0.0206	-2746.31
0.9901,0.0099	-2745.37
0.9870,0.0130	-2745.65
0.9966,0.0034	-2744.82
0.9943,0.0057	-2745.01
0.9969,0.0031	-2744.79
0.9807,0.0193	-2746.20
0.9903,0.0097	-2745.35
0.9868,0.0132	-2745.66
0.9954,0.0046	-2744.92
0.9942,0.0058	-2745.03
0.9975,0.0025	-2744.74
0.9780,0.0220	-2746.44
0.9885,0.0115	-2745.51
0.9899,0.0101	-2745.39
0.9959,0.0041	-2744.87
0.9939,0.0061	-2745.05
0.9980,0.0020	-2744.70
0.9826,0.0174	-2746.03
0.9884,0.0116	-2745.52
0.9889,0.0111	-2745.48
0.9954,0.0046	-2744.92
0.9939,0.0061	-2745.05
0.9981,0.0019	-2744.69
0.9802,0.0198	-2746.24
0.9907,0.0093	-2745.32
0.9890,0.0110	-2745.47
0.9952,0.0048	-2744.94
0.9947,0.0053	-2744.98
0.9982,0.0018	-2744.68
0.9836,0.0164	-2745.94
0.9926,0.0074	-2745.16
0.9881,0.0119	-2745.55
0.9956,0.0044	-2744.90
0.9942,0.0058	-2745.03
0.9981,0.0019	-2744.69
0.9830,0.0170	-2745.99
0.9941,0.0059	-2745.03
0.9896,0.0104	-2745.42
0.9958,0.0042	-2744.89
0.9935,0.0065	-2745.08
0.9978,0.0022	-2744.72
0.9829,0.0171	-2746.00
0.9936,0.0064	-2745.07
0.9878,0.0122	-2745.58
0.9961,0.0039	-2744.86
0.9930,0.0070	-2745.13
0.9975,0.0025	-2744.74
0.9818,0.0182	-2746.09
0.9946,0.0054	-2744.99
0.9874,0.0126	-2745.61
0.9949,0.0051	-2744.96
0.9906,0.0094	-2745.34
0.9976,0.0024	-2744.74
0.9818,0.0182	-2746.10
0.9953,0.0047	-2744.93
0.9901,0.0099	-2745.37
0.9943,0.0057	-2745.01
0.9902,0.0098	-2745.37
0.9974,0.0026	-2744.75
0.9827,0.0173	-2746.01
0.9958,0.0042	-2744.89
0.9902,0.0098	-2745.36
0.9931,0.0069	-2745.12
0.9868,0.0132	-2745.66
0.9974,0.0026	-2744.75
0.9819,0.0181	-2746.09
0.9946,0.0054	-2744.99
0.9906,0.0094	-2745.33
0.9927,0.0073	-2745.16
0.9888,0.0112	-2745.48
0.9975,0.0025	-2744.74
0.9806,0.0194	-2746.20
0.9943,0.0057	-2745.02
0.9904,0.0096	-2745.35
0.9908,0.0092	-2745.31
0.9877,0.0123	-2745.58
0.9974,0.0026	-2744.75
0.9780,0.0220	-2746.43
0.9944,0.0056	-2745.01
0.9858,0.0142	-2745.75
0.9874,0.0126	-2745.61
0.9905,0.0095	-2745.34
0.9974,0.0026	-2744.75
0.9773,0.0227	-2746.50
0.9938,0.0062	-2745.05
0.9833,0.0167	-2745.97
0.9825,0.0175	-2746.03
0.9914,0.0086	-2745.26
0.9975,0.0025	-2744.74
0.9749,0.0251	-2746.70
0.9939,0.0061	-2745.05
0.9800,0.0200	-2746.26
0.9845,0.0155	-2745.86
0.9903,0.0097	-2745.35
0.9978,0.0022	-2744.72
0.9802,0.0198	-2746.24
0.9935,0.0065	-2745.08
0.9818,0.0182	-2746.10
0.9852,0.0148	-2745.80
0.9900,0.0100	-2745.39
0.9973,0.0027	-2744.75
0.9780,0.0220	-2746.44
0.9945,0.0055	-2744.99
0.9814,0.0186	-2746.13
0.9842,0.0158	-2745.88
0.9876,0.0124	-2745.59
0.9978,0.0022	-2744.71
0.9788,0.0212	-2746.36
0.9949,0.0051	-2744.97
0.9873,0.0127	-2745.62
0.9840,0.0160	-2745.91
0.9873,0.0127	-2745.62
0.9979,0.0021	-2744.71
0.9792,0.0208	-2746.33
0.9945,0.0055	-2745.00
0.9898,0.0102	-2745.40
0.9820,0.0180	-2746.08
0.9847,0.0153	-2745.85
0.9983,0.0017	-2744.68
0.9774,0.0226	-2746.49
0.9954,0.0046	-2744.92
0.9897,0.0103	-2745.41
0.9836,0.0164	-2745.94
0.9840,0.0160	-2745.90
0.9984,0.0016	-2744.67
0.9782,0.0218	-2746.41
0.9950,0.0050	-2744.95
0.9917,0.0083	-2745.24
0.9833,0.0167	-2745.97
0.9802,0.0198	-2746.23
0.9987,0.0013	-2744.64
0.9754,0.0246	-2746.66
0.9935,0.0065	-2745.09
0.9932,0.0068	-2745.11
0.9865,0.0135	-2745.69
0.9819,0.0181	-2746.09
0.9985,0.0015	-2744.65
0.9799,0.0201	-2746.27
0.9909,0.0091	-2745.30
0.9941,0.0059	-2745.03
0.9876,0.0124	-2745.59
0.9811,0.0189	-2746.15
0.9984,0.0016	-2744.66
0.9794,0.0206	-2746.31
0.9919,0.0081	-2745.22
0.9932,0.0068	-2745.11
0.9899,0.0101	-2745.39
0.9826,0.0174	-2746.03
0.9984,0.0016	-2744.67
0.9770,0.0230	-2746.52
0.9897,0.0103	-2745.41
0.9930,0.0070	-2745.13
0.9901,0.0099	-2745.38
0.9839,0.0161	-2745.92
0.9985,0.0015	-2744.66
0.9751,0.0249	-2746.69
0.9896,0.0104	-2745.42
0.9939,0.0061	-2745.05
0.9861,0.0139	-2745.72
0.9831,0.0169	-2745.99
0.9987,0.0013	-2744.64
0.9795,0.0205	-2746.30
0.9874,0.0126	-2745.61
0.9936,0.0064	-2745.07
0.9846,0.0154	-2745.85
0.9815,0.0185	-2746.12
0.9988,0.0012	-2744.63
0.9805,0.0195	-2746.21
0.9898,0.0102	-2745.40
0.9945,0.0055	-2745.00
0.9810,0.0190	-2746.16
0.9870,0.0130	-2745.65
0.9991,0.0009	-2744.61
0.9751,0.0249	-2746.69
0.9895,0.0105	-2745.43
0.9944,0.0056	-2745.01
0.9788,0.0212	-2746.36
0.9866,0.0134	-2745.68
0.9990,0.0010	-2744.62
0.9734,0.0266	-2746.84
0.9882,0.0118	-2745.54
0.9928,0.0072	-2745.14
0.9711,0.0289	-2747.05
0.9868,0.0132	-2745.66
0.9989,0.0011	-2744.62
0.9812,0.0188	-2746.15
0.9875,0.0125	-2745.60
0.9925,0.0075	-2745.17
0.9760,0.0240	-2746.61
0.9877,0.0123	-2745.58
0.9988,0.0012	-2744.63
0.9860,0.0140	-2745.73
0.9856,0.0144	-2745.76
0.9928,0.0072	-2745.14
0.9763,0.0237	-2746.58
0.9892,0.0108	-2745.45
0.9988,0.0012	-2744.63
0.9848,0.0152	-2745.84
0.9820,0.0180	-2746.08
0.9937,0.0063	-2745.07
0.9829,0.0171	-2746.00
0.9882,0.0118	-2745.54
0.9989,0.0011	-2744.62
0.9872,0.0128	-2745.63
0.9828,0.0172	-2746.01
0.9944,0.0056	-2745.00
0.9806,0.0194	-2746.20
0.9884,0.0116	-2745.52
0.9988,0.0012	-2744.63
0.9906,0.0094	-2745.33
0.9839,0.0161	-2745.92
0.9952,0.0048	-2744.94
0.9800,0.0200	-2746.25
0.9881,0.0119	-2745.55
0.9989,0.0011	-2744.62
0.9912,0.0088	-2745.28
0.9837,0.0163	-2745.94
0.9950,0.0050	-2744.96
0.9830,0.0170	-2745.99
0.9881,0.0119	-2745.55
0.9990,0.0010	-2744.61
0.9910,0.0090	-2745.30
0.9825,0.0175	-2746.04
0.9944,0.0056	-2745.00
0.9862,0.0138	-2745.71
0.9879,0.0121	-2745.56
0.9989,0.0011	-2744.62
0.9866,0.0134	-2745.68
0.9816,0.0184	-2746.12
0.9948,0.0052	-2744.97
0.9887,0.0113	-2745.50
0.9901,0.0099	-2745.38
0.9987,0.0013	-2744.64
0.9873,0.0127	-2745.62
0.9822,0.0178	-2746.06
0.9947,0.0053	-2744.98
0.9828,0.0172	-2746.01
0.9909,0.0091	-2745.31
0.9982,0.0018	-2744.68
0.9836,0.0164	-2745.94
0.9802,0.0198	-2746.24
0.9959,0.0041	-2744.87
0.9847,0.0153	-2745.84
0.9897,0.0103	-2745.41
0.9981,0.0019	-2744.69
0.9867,0.0133	-2745.67
0.9757,0.0243	-2746.63
0.9954,0.0046	-2744.92
0.9849,0.0151	-2745.83
0.9897,0.0103	-2745.41
0.9976,0.0024	-2744.73
0.9869,0.0131	-2745.65
0.9704,0.0296	-2747.10
0.9944,0.0056	-2745.01
0.9832,0.0168	-2745.97
0.9906,0.0094	-2745.33
0.9975,0.0025	-2744.74
0.9871,0.0129	-2745.63
0.9728,0.0272	-2746.89
0.9941,0.0059	-2745.03
0.9852,0.0148	-2745.80
0.9898,0.0102	-2745.40
0.9972,0.0028	-2744.76
0.9898,0.0102	-2745.40
0.9757,0.0243	-2746.64
0.9943,0.0057	-2745.02
0.9870,0.0130	-2745.64
0.9892,0.0108	-2745.45
0.9973,0.0027	-2744.76
0.9916,0.0084	-2745.25
0.9710,0.0290	-2747.05
0.9953,0.0047	-2744.93
0.9883,0.0117	-2745.53
0.9891,0.0109	-2745.46
0.9969,0.0031	-2744.79
0.9909,0.0091	-2745.31
0.9695,0.0305	-2747.19
0.9966,0.0034	-2744.82
0.9875,0.0125	-2745.60
0.9897,0.0103	-2745.41
0.9970,0.0030	-2744.79
0.9929,0.0071	-2745.13
0.9655,0.0345	-2747.55
0.9961,0.0039	-2744.86
0.9848,0.0152	-2745.83
0.9914,0.0086	-2745.26
0.9981,0.0019	-2744.69
0.9921,0.0079	-2745.20
0.9695,0.0305	-2747.19
0.9977,0.0023	-2744.73
0.9856,0.0144	-2745.77
0.9875,0.0125	-2745.60
0.9978,0.0022	-2744.72
0.9900,0.0100	-2745.38
0.9758,0.0242	-2746.62
0.9978,0.0022	-2744.71
0.9854,0.0146	-2745.78
0.9904,0.0096	-2745.35
0.9980,0.0020	-2744.70
0.9921,0.0079	-2745.20
0.9741,0.0259	-2746.78
0.9982,0.0018	-2744.68
0.9858,0.0142	-2745.75
0.9892,0.0108	-2745.45
0.9978,0.0022	-2744.72
0.9930,0.0070	-2745.12
0.9665,0.0335	-2747.46
0.9977,0.0023	-2744.72
0.9861,0.0139	-2745.72
0.9921,0.0079	-2745.21
0.9978,0.0022	-2744.72
0.9933,0.0067	-2745.10
0.9676,0.0324	-2747.36
0.9972,0.0028	-2744.77
0.9849,0.0151	-2745.82
0.9920,0.0080	-2745.21
0.9980,0.0020	-2744.70
0.9930,0.0070	-2745.12
0.9749,0.0251	-2746.71
0.9970,0.0030	-2744.78
0.9878,0.0122	-2745.57
0.9926,0.0074	-2745.16
0.9977,0.0023	-2744.72
0.9943,0.0057	-2745.01
0.9690,0.0310	-2747.23
0.9971,0.0029	-2744.78
0.9887,0.0113	-2745.49
0.9931,0.0069	-2745.12
0.9970,0.0030	-2744.78
0.9941,0.0059	-2745.03
0.9734,0.0266	-2746.84
0.9970,0.0030	-2744.78
0.9889,0.0111	-2745.48
0.9945,0.0055	-2745.00
0.9976,0.0024	-2744.73
0.9928,0.0072	-2745.14
0.9814,0.0186	-2746.13
0.9968,0.0032	-2744.80
0.9895,0.0105	-2745.43
0.9948,0.0052	-2744.98
0.9974,0.0026	-2744.75
0.9945,0.0055	-2744.99
0.9807,0.0193	-2746.19
0.9964,0.0036	-2744.84
0.9903,0.0097	-2745.36
0.9958,0.0042	-2744.89
0.9970,0.0030	-2744.79
0.9949,0.0051	-2744.96
0.9796,0.0204	-2746.29
0.9965,0.0035	-2744.83
0.9916,0.0084	-2745.25
0.9964,0.0036	-2744.84
0.9970,0.0030	-2744.78
0.9954,0.0046	-2744.92
0.9813,0.0187	-2746.14
0.9950,0.0050	-2744.95
0.9915,0.0085	-2745.25
0.9963,0.0037	-2744.85
0.9963,0.0037	-2744.84
0.9960,0.0040	-2744.87
0.9780,0.0220	-2746.43
0.9950,0.0050	-2744.95
0.9911,0.0089	-2745.29
0.9965,0.0035	-2744.82
0.9969,0.0031	-2744.79
0.9954,0.0046	-2744.92
0.9788,0.0212	-2746.37
0.9957,0.0043	-2744.89
0.9875,0.0125	-2745.60
0.9959,0.0041	-2744.88
0.9965,0.0035	-2744.82
0.9951,0.0049	-2744.94
0.9781,0.0219	-2746.42
0.9950,0.0050	-2744.96
0.9886,0.0114	-2745.50
0.9956,0.0044	-2744.90
0.9965,0.0035	-2744.83
0.9954,0.0046	-2744.92
0.9801,0.0199	-2746.25
0.9955,0.0045	-2744.91
0.9908,0.0092	-2745.32
0.9964,0.0036	-2744.83
0.9966,0.0034	-2744.81
0.9950,0.0050	-2744.95
0.9784,0.0216	-2746.40
0.9953,0.0047	-2744.93
0.9884,0.0116	-2745.52
0.9966,0.0034	-2744.82
0.9962,0.0038	-2744.85
0.9955,0.0045	-2744.91
0.9796,0.0204	-2746.29
0.9953,0.0047	-2744.93
0.9870,0.0130	-2745.64
0.9961,0.0039	-2744.86
0.9963,0.0037	-2744.85
0.9957,0.0043	-2744.89
0.9753,0.0247	-2746.67
0.9944,0.0056	-2745.01
0.9877,0.0123	-2745.59
0.9967,0.0033	-2744.81
0.9972,0.0028	-2744.77
0.9946,0.0054	-2744.99
0.9726,0.0274	-2746.91
0.9941,0.0059	-2745.03
0.9890,0.0110	-2745.47
0.9963,0.0037	-2744.84
0.9968,0.0032	-2744.80
0.9942,0.0058	-2745.03
0.9666,0.0334	-2747.45
0.9941,0.0059	-2745.03
0.9882,0.0118	-2745.54
0.9961,0.0039	-2744.86
0.9976,0.0024	-2744.73
0.9952,0.0048	-2744.94
0.9642,0.0358	-2747.66
0.9941,0.0059	-2745.03
0.9879,0.0121	-2745.56
0.9950,0.0050	-2744.95
0.9980,0.0020	-2744.70
0.9955,0.0045	-2744.91
0.9669,0.0331	-2747.42
0.9934,0.0066	-2745.09
0.9869,0.0131	-2745.65
0.9944,0.0056	-2745.01
0.9979,0.0021	-2744.70
0.9960,0.0040	-2744.87
0.9666,0.0334	-2747.45
0.9939,0.0061	-2745.05
0.9905,0.0095	-2745.34
0.9957,0.0043	-2744.90
0.9981,0.0019	-2744.69
0.9960,0.0040	-2744.87
0.9734,0.0266	-2746.84
0.9935,0.0065	-2745.09
0.9921,0.0079	-2745.20
0.9954,0.0046	-2744.92
0.9984,0.0016	-2744.66
0.9962,0.0038	-2744.85
0.9715,0.0285	-2747.01
0.9937,0.0063	-2745.07
0.9925,0.0075	-2745.17
0.9954,0.0046	-2744.92
0.9984,0.0016	-2744.67
0.9954,0.0046	-2744.92
0.9715,0.0285	-2747.01
0.9929,0.0071	-2745.13
0.9908,0.0092	-2745.32
0.9954,0.0046	-2744.92
0.9978,0.0022	-2744.72
0.9950,0.0050	-2744.95
0.9766,0.0234	-2746.56
0.9929,0.0071	-2745.13
0.9918,0.0082	-2745.23
0.9933,0.0067	-2745.10
0.9975,0.0025	-2744.74
0.9950,0.0050	-2744.95
0.9744,0.0256	-2746.75
0.9926,0.0074	-2745.16
0.9929,0.0071	-2745.13
0.9940,0.0060	-2745.04
0.9982,0.0018	-2744.68
0.9949,0.0051	-2744.96
0.9742,0.0258	-2746.76
0.9932,0.0068	-2745.11
0.9942,0.0058	-2745.02
0.9937,0.0063	-2745.06
0.9976,0.0024	-2744.73
0.9952,0.0048	-2744.94
0.9750,0.0250	-2746.70
0.9930,0.0070	-2745.12
0.9956,0.0044	-2744.90
0.9925,0.0075	-2745.17
0.9973,0.0027	-2744.75
0.9944,0.0056	-2745.01
0.9780,0.0220	-2746.43
0.9931,0.0069	-2745.11
0.9967,0.0033	-2744.81
0.9937,0.0063	-2745.06
0.9974,0.0026	-2744.75
0.9940,0.0060	-2745.04
0.9822,0.0178	-2746.06
0.9938,0.0062	-2745.06
0.9974,0.0026	-2744.75
0.9922,0.0078	-2745.19
0.9971,0.0029	-2744.78
0.9948,0.0052	-2744.97
0.9802,0.0198	-2746.24
0.9924,0.0076	-2745.18
0.9966,0.0034	-2744.82
0.9924,0.0076	-2745.18
0.9974,0.0026	-2744.75
0.9948,0.0052	-2744.97
0.9757,0.0243	-2746.64
0.9931,0.0069	-2745.12
0.9966,0.0034	-2744.82
0.9908,0.0092	-2745.31
0.9976,0.0024	-2744.73
0.9946,0.0054	-2744.99
0.9777,0.0223	-2746.46
0.9926,0.0074	-2745.16
0.9965,0.0035	-2744.83
0.9896,0.0104	-2745.42
0.9973,0.0027	-2744.76
0.9939,0.0061	-2745.05
0.9799,0.0201	-2746.26
0.9933,0.0067	-2745.10
0.9962,0.0038	-2744.85
0.9914,0.0086	-2745.27
0.9966,0.0034	-2744.82
0.9921,0.0079	-2745.20
0.9833,0.0167	-2745.97
0.9933,0.0067	-2745.10
0.9972,0.0028	-2744.77
0.9918,0.0082	-2745.23
0.9971,0.0029	-2744.78
0.9927,0.0073	-2745.15
0.9833,0.0167	-2745.97
0.9941,0.0059	-2745.03
0.9964,0.0036	-2744.84
0.9914,0.0086	-2745.27
0.9977,0.0023	-2744.73
0.9937,0.0063	-2745.07
0.9829,0.0171	-2746.00
0.9923,0.0077	-2745.19
0.9967,0.0033	-2744.81
0.9929,0.0071	-2745.13
0.9975,0.0025	-2744.74
0.9932,0.0068	-2745.11
0.9821,0.0179	-2746.07
0.9925,0.0075	-2745.17
0.9967,0.0033	-2744.81
0.9912,0.0088	-2745.28
0.9973,0.0027	-2744.76
0.9941,0.0059	-2745.03
0.9820,0.0180	-2746.08
0.9935,0.0065	-2745.08
0.9968,0.0032	-2744.80
0.9917,0.0083	-2745.24
0.9969,0.0031	-2744.79
0.9944,0.0056	-2745.01
0.9845,0.0155	-2745.86
0.9936,0.0064	-2745.07
0.9974,0.0026	-2744.75
0.9913,0.0087	-2745.28
0.9960,0.0040	-2744.87
0.9947,0.0053	-2744.98
0.9873,0.0127	-2745.62
0.9937,0.0063	-2745.06
0.9978,0.0022	-2744.72
0.9906,0.0094	-2745.33
0.9952,0.0048	-2744.94
0.9949,0.0051	-2744.96
0.9872,0.0128	-2745.63
0.9950,0.0050	-2744.96
0.9977,0.0023	-2744.72
0.9882,0.0118	-2745.54
0.9946,0.0054	-2744.99
0.9956,0.0044	-2744.90
0.9871,0.0129	-2745.63
0.9949,0.0051	-2744.96
0.9983,0.0017	-2744.67
0.9890,0.0110	-2745.47
0.9946,0.0054	-2744.98
0.9961,0.0039	-2744.86
0.9880,0.0120	-2745.56
0.9955,0.0045	-2744.91
0.9980,0.0020	-2744.70
0.9893,0.0107	-2745.44
0.9955,0.0045	-2744.91
0.9954,0.0046	-2744.92
0.9900,0.0100	-2745.39
0.9950,0.0050	-2744.95
0.9982,0.0018	-2744.68
0.9873,0.0127	-2745.62
0.9959,0.0041	-2744.88
0.9956,0.0044	-2744.90
0.9883,0.0117	-2745.53
0.9932,0.0068	-2745.11
0.9982,0.0018	-2744.68
0.9836,0.0164	-2745.94
0.9947,0.0053	-2744.98
0.9953,0.0047	-2744.93
0.9885,0.0115	-2745.52
0.9927,0.0073	-2745.15
0.9980,0.0020	-2744.70
0.9840,0.0160	-2745.90
0.9941,0.0059	-2745.03
0.9969,0.0031	-2744.79
0.9892,0.0108	-2745.46
0.9935,0.0065	-2745.09
0.9979,0.0021	-2744.70
0.9819,0.0181	-2746.08
0.9942,0.0058	-2745.03
0.9970,0.0030	-2744.79
0.9882,0.0118	-2745.54
0.9939,0.0061	-2745.05
0.9965,0.0035	-2744.82
0.9821,0.0179	-2746.07
0.9940,0.0060	-2745.04
0.9970,0.0030	-2744.78
0.9862,0.0138	-2745.72
0.9945,0.0055	-2745.00
0.9960,0.0040	-2744.87
0.9804,0.0196	-2746.22
0.9950,0.0050	-2744.96
0.9965,0.0035	-2744.83
0.9888,0.0112	-2745.49
0.9952,0.0048	-2744.94
0.9970,0.0030	-2744.78
0.9817,0.0183	-2746.10
0.9950,0.0050	-2744.95
0.9965,0.0035	-2744.82
0.9909,0.0091	-2745.31
0.9962,0.0038	-2744.85
0.9966,0.0034	-2744.82
0.9821,0.0179	-2746.07
0.9961,0.0039	-2744.86
0.9962,0.0038	-2744.85
0.9911,0.0089	-2745.29
0.9957,0.0043	-2744.89
0.9965,0.0035	-2744.83
0.9875,0.0125	-2745.60
0.9973,0.0027	-2744.76
0.9963,0.0037	-2744.84
0.9923,0.0077	-2745.19
0.9957,0.0043	-2744.90
0.9978,0.0022	-2744.71
0.9886,0.0114	-2745.51
0.9975,0.0025	-2744.74
0.9956,0.0044	-2744.90
0.9914,0.0086	-2745.26
0.9958,0.0042	-2744.89
0.9974,0.0026	-2744.75
0.9887,0.0113	-2745.49
0.9977,0.0023	-2744.72
0.9941,0.0059	-2745.04
0.9875,0.0125	-2745.60
0.9956,0.0044	-2744.90
0.9974,0.0026	-2744.75
0.9885,0.0115	-2745.51
0.9980,0.0020	-2744.70
0.9952,0.0048	-2744.94
0.9882,0.0118	-2745.54
0.9947,0.0053	-2744.98
0.9973,0.0027	-2744.76
0.9901,0.0099	-2745.37
0.9979,0.0021	-2744.70
0.9933,0.0067	-2745.10
0.9883,0.0117	-2745.53
0.9947,0.0053	-2744.98
0.9974,0.0026	-2744.75
0.9909,0.0091	-2745.30
0.9983,0.0017	-2744.67
0.9921,0.0079	-2745.20
0.9898,0.0102	-2745.40
0.9955,0.0045	-2744.91
0.9972,0.0028	-2744.76
0.9919,0.0081	-2745.22
0.9981,0.0019	-2744.69
0.9907,0.0093	-2745.33
0.9899,0.0101	-2745.39
0.9958,0.0042	-2744.89
0.9973,0.0027	-2744.76
0.9913,0.0087	-2745.27
0.9984,0.0016	-2744.67
0.9887,0.0113	-2745.50
0.9884,0.0116	-2745.52
0.9961,0.0039	-2744.86
0.9973,0.0027	-2744.76
0.9919,0.0081	-2745.22
0.9985,0.0015	-2744.66
0.9869,0.0131	-2745.65
0.9901,0.0099	-2745.38
0.9963,0.0037	-2744.84
0.9972,0.0028	-2744.77
0.9909,0.0091	-2745.30
0.9985,0.0015	-2744.66
0.9878,0.0122	-2745.57
0.9911,0.0089	-2745.29
0.9968,0.0032	-2744.80
0.9969,0.0031	-2744.79
0.9908,0.0092	-2745.31
0.9989,0.0011	-2744.62
0.9901,0.0099	-2745.37
0.9922,0.0078	-2745.20
0.9971,0.0029	-2744.77
0.9975,0.0025	-2744.74
0.9910,0.0090	-2745.30
0.9989,0.0011	-2744.62
0.9913,0.0087	-2745.27
0.9934,0.0066	-2745.09
0.9973,0.0027	-2744.75
0.9970,0.0030	-2744.78
0.9910,0.0090	-2745.30
0.9992,0.0008	-2744.59
0.9907,0.0093	-2745.32
0.9921,0.0079	-2745.20
0.9975,0.0025	-2744.74
0.9968,0.0032	-2744.80
0.9909,0.0091	-2745.31
0.9994,0.0006	-2744.58
0.9919,0.0081	-2745.22
0.9931,0.0069	-2745.12
0.9977,0.0023	-2744.73
0.9969,0.0031	-2744.79
0.9913,0.0087	-2745.27
0.9994,0.0006	-2744.58
0.9930,0.0070	-2745.13
0.9926,0.0074	-2745.16
0.9977,0.0023	-2744.72
0.9959,0.0041	-2744.88
0.9923,0.0077	-2745.18
0.9992,0.0008	-2744.59
0.9925,0.0075	-2745.17
0.9933,0.0067	-2745.10
0.9975,0.0025	-2744.74
0.9959,0.0041	-2744.88
0.9914,0.0086	-2745.26
0.9991,0.0009	-2744.61
0.9919,0.0081	-2745.22
0.9935,0.0065	-2745.09
0.9974,0.0026	-2744.75
0.9961,0.0039	-2744.86
0.9913,0.0087	-2745.27
0.9991,0.0009	-2744.60
0.9926,0.0074	-2745.16
0.9931,0.0069	-2745.12
0.9976,0.0024	-2744.73
0.9955,0.0045	-2744.91
0.9935,0.0065	-2745.09
0.9990,0.0010	-2744.61
0.9915,0.0085	-2745.25
0.9928,0.0072	-2745.14
0.9977,0.0023	-2744.72
0.9964,0.0036	-2744.83
0.9945,0.0055	-2744.99
0.9992,0.0008	-2744.60
0.9907,0.0093	-2745.32
0.9941,0.0059	-2745.03
0.9978,0.0022	-2744.72
0.9958,0.0042	-2744.88
0.9941,0.0059	-2745.04
0.9992,0.0008	-2744.59
0.9893,0.0107	-2745.44
0.9937,0.0063	-2745.06
0.9980,0.0020	-2744.70
0.9956,0.0044	-2744.90
0.9940,0.0060	-2745.04
0.9993,0.0007	-2744.59
0.9863,0.0137	-2745.70
0.9906,0.0094	-2745.33
0.9984,0.0016	-2744.66
0.9957,0.0043	-2744.90
0.9926,0.0074	-2745.16
0.9991,0.0009	-2744.60
0.9851,0.0149	-2745.81
0.9915,0.0085	-2745.26
0.9983,0.0017	-2744.67
0.9960,0.0040	-2744.87
0.9908,0.0092	-2745.31
0.9992,0.0008	-2744.60
0.9851,0.0149	-2745.80
0.9908,0.0092	-2745.31
0.9984,0.0016	-2744.66
0.9958,0.0042	-2744.88
0.9891,0.0109	-2745.46
0.9992,0.0008	-2744.60
0.9846,0.0154	-2745.85
0.9911,0.0089	-2745.29
0.9982,0.0018	-2744.68
0.9956,0.0044	-2744.91
0.9877,0.0123	-2745.58
0.9992,0.0008	-2744.59
0.9823,0.0177	-2746.06
0.9915,0.0085	-2745.26
0.9980,0.0020	-2744.70
0.9955,0.0045	-2744.91
0.9894,0.0106	-2745.44
0.9989,0.0011	-2744.62
0.9778,0.0222	-2746.44
0.9937,0.0063	-2745.07
0.9985,0.0015	-2744.66
0.9957,0.0043	-2744.90
0.9909,0.0091	-2745.30
0.9989,0.0011	-2744.62
0.9759,0.0241	-2746.62
0.9939,0.0061	-2745.05
0.9985,0.0015	-2744.66
0.9961,0.0039	-2744.86
0.9894,0.0106	-2745.44
0.9985,0.0015	-2744.66
0.9749,0.0251	-2746.71
0.9944,0.0056	-2745.01
0.9986,0.0014	-2744.65
0.9954,0.0046	-2744.92
0.9893,0.0107	-2745.44
0.9985,0.0015	-2744.66
0.9696,0.0304	-2747.18
0.9936,0.0064	-2745.08
0.9987,0.0013	-2744.64
0.9957,0.0043	-2744.90
0.9874,0.0126	-2745.61
0.9985,0.0015	-2744.66
0.9750,0.0250	-2746.70
0.9933,0.0067	-2745.10
0.9987,0.0013	-2744.64
0.9945,0.0055	-2744.99
0.9884,0.0116	-2745.52
0.9985,0.0015	-2744.66
0.9750,0.0250	-2746.70
0.9934,0.0066	-2745.09
0.9985,0.0015	-2744.66
0.9946,0.0054	-2744.99
0.9870,0.0130	-2745.65
0.9983,0.0017	-2744.67
0.9794,0.0206	-2746.31
0.9939,0.0061	-2745.05
0.9983,0.0017	-2744.67
0.9955,0.0045	-2744.91
0.9875,0.0125	-2745.60
0.9985,0.0015	-2744.66
0.9821,0.0179	-2746.07
0.9934,0.0066	-2745.09
0.9980,0.0020	-2744.70
0.9957,0.0043	-2744.89
0.9889,0.0111	-2745.48
0.9986,0.0014	-2744.65
0.9827,0.0173	-2746.02
0.9938,0.0062	-2745.06
0.9973,0.0027	-2744.75
0.9956,0.0044	-2744.90
0.9880,0.0120	-2745.56
0.9990,0.0010	-2744.61
0.9851,0.0149	-2745.81
0.9933,0.0067	-2745.10
0.9965,0.0035	-2744.83
0.9944,0.0056	-2745.00
0.9865,0.0135	-2745.69
0.9991,0.0009	-2744.60
0.9826,0.0174	-2746.03
0.9943,0.0057	-2745.02
0.9970,0.0030	-2744.78
0.9945,0.0055	-2744.99
0.9892,0.0108	-2745.45
0.9993,0.0007	-2744.59
0.9806,0.0194	-2746.21
0.9955,0.0045	-2744.91
0.9971,0.0029	-2744.78
0.9941,0.0059	-2745.03
0.9866,0.0134	-2745.67
0.9991,0.0009	-2744.61
0.9801,0.0199	-2746.24
0.9959,0.0041	-2744.88
0.9970,0.0030	-2744.78
0.9939,0.0061	-2745.04
0.9873,0.0127	-2745.62
0.9991,0.0009	-2744.60
0.9829,0.0171	-2746.00
0.9950,0.0050	-2744.96
0.9975,0.0025	-2744.74
0.9927,0.0073	-2745.15
0.9875,0.0125	-2745.60
0.9989,0.0011	-2744.62
0.9859,0.0141	-2745.74
0.9940,0.0060	-2745.04
0.9979,0.0021	-2744.71
0.9918,0.0082	-2745.23
0.9888,0.0112	-2745.49
0.9991,0.0009	-2744.60
0.9846,0.0154	-2745.86
0.9949,0.0051	-2744.96
0.9977,0.0023	-2744.72
0.9929,0.0071	-2745.14
0.9880,0.0120	-2745.55
0.9991,0.0009	-2744.61
0.9868,0.0132	-2745.66
0.9946,0.0054	-2744.99
0.9983,0.0017	-2744.67
0.9929,0.0071	-2745.13
0.9859,0.0141	-2745.74
0.9989,0.0011	-2744.62
0.9885,0.0115	-2745.51
0.9960,0.0040	-2744.86
0.9983,0.0017	-2744.67
0.9917,0.0083	-2745.24
0.9818,0.0182	-2746.10
0.9990,0.0010	-2744.61
0.9883,0.0117	-2745.53
0.9954,0.0046	-2744.92
0.9986,0.0014	-2744.65
0.9925,0.0075	-2745.17
0.9803,0.0197	-2746.23
0.9990,0.0010	-2744.61
0.9876,0.0124	-2745.59
0.9964,0.0036	-2744.83
0.9985,0.0015	-2744.65
0.9926,0.0074	-2745.16
0.9804,0.0196	-2746.22
0.9991,0.0009	-2744.60
0.9870,0.0130	-2745.65
0.9970,0.0030	-2744.79
0.9983,0.0017	-2744.67
0.9919,0.0081	-2745.22
0.9786,0.0214	-2746.38
0.9988,0.0012	-2744.63
0.9854,0.0146	-2745.78
0.9971,0.0029	-2744.78
0.9984,0.0016	-2744.67
0.9922,0.0078	-2745.20
0.9747,0.0253	-2746.72
0.9986,0.0014	-2744.64
0.9881,0.0119	-2745.55
0.9966,0.0034	-2744.82
0.9985,0.0015	-2744.66
0.9918,0.0082	-2745.23
0.9665,0.0335	-2747.46
0.9988,0.0012	-2744.63
0.9892,0.0108	-2745.45
0.9961,0.0039	-2744.86
0.9985,0.0015	-2744.66
0.9901,0.0099	-2745.38
0.9719,0.0281	-2746.98
0.9986,0.0014	-2744.65
0.9900,0.0100	-2745.38
0.9945,0.0055	-2744.99
0.9988,0.0012	-2744.63
0.9914,0.0086	-2745.26
0.9710,0.0290	-2747.05
0.9989,0.0011	-2744.62
0.9913,0.0087	-2745.28
0.9952,0.0048	-2744.93
0.9987,0.0013	-2744.64
0.9906,0.0094	-2745.33
0.9760,0.0240	-2746.61
0.9986,0.0014	-2744.65
0.9915,0.0085	-2745.26
0.9959,0.0041	-2744.88
0.9982,0.0018	-2744.68
0.9903,0.0097	-2745.36
0.9746,0.0254	-2746.73
0.9985,0.0015	-2744.65
0.9912,0.0088	-2745.28
0.9961,0.0039	-2744.86
0.9980,0.0020	-2744.70
0.9896,0.0104	-2745.42
0.9695,0.0305	-2747.19
0.9988,0.0012	-2744.63
0.9885,0.0115	-2745.52
0.9959,0.0041	-2744.87
0.9976,0.0024	-2744.73
0.9880,0.0120	-2745.56
0.9673,0.0327	-2747.38
0.9986,0.0014	-2744.64
0.9861,0.0139	-2745.72
0.9964,0.0036	-2744.83
0.9978,0.0022	-2744.72
0.9854,0.0146	-2745.79
0.9643,0.0357	-2747.65
0.9987,0.0013	-2744.64
0.9848,0.0152	-2745.84
0.9967,0.0033	-2744.81
0.9978,0.0022	-2744.71
0.9848,0.0152	-2745.84
0.9652,0.0348	-2747.57
0.9988,0.0012	-2744.63
0.9834,0.0166	-2745.96
0.9967,0.0033	-2744.81
0.9975,0.0025	-2744.74
0.9846,0.0154	-2745.86
0.9693,0.0307	-2747.20
0.9985,0.0015	-2744.66
0.9823,0.0177	-2746.05
0.9970,0.0030	-2744.78
0.9972,0.0028	-2744.76
0.9840,0.0160	-2745.90
0.9609,0.0391	-2747.96
0.9982,0.0018	-2744.68
0.9767,0.0233	-2746.55
0.9971,0.0029	-2744.78
0.9964,0.0036	-2744.83
0.9884,0.0116	-2745.52
0.9640,0.0360	-2747.68
0.9981,0.0019	-2744.69
0.9813,0.0187	-2746.14
0.9978,0.0022	-2744.72
0.9957,0.0043	-2744.89
0.9878,0.0122	-2745.58
0.9642,0.0358	-2747.67
0.9986,0.0014	-2744.65
0.9809,0.0191	-2746.18
0.9978,0.0022	-2744.71
0.9956,0.0044	-2744.90
0.9865,0.0135	-2745.69
0.9591,0.0409	-2748.13
0.9987,0.0013	-2744.64
0.9752,0.0248	-2746.68
0.9979,0.0021	-2744.71
0.9963,0.0037	-2744.84
0.9897,0.0103	-2745.41
0.9554,0.0446	-2748.47
0.9987,0.0013	-2744.64
0.9764,0.0236	-2746.57
0.9983,0.0017	-2744.67
0.9965,0.0035	-2744.82
0.9888,0.0112	-2745.49
0.9606,0.0394	-2747.99
0.9989,0.0011	-2744.62
0.9769,0.0231	-2746.53
0.9989,0.0011	-2744.63
0.9957,0.0043	-2744.89
0.9877,0.0123	-2745.58
0.9661,0.0339	-2747.49
0.9988,0.0012	-2744.63
0.9765,0.0235	-2746.56
0.9985,0.0015	-2744.66
0.9958,0.0042	-2744.89
0.9831,0.0169	-2745.99
0.9632,0.0368	-2747.75
0.9989,0.0011	-2744.62
0.9795,0.0205	-2746.30
0.9984,0.0016	-2744.66
0.9956,0.0044	-2744.90
0.9813,0.0187	-2746.14
0.9745,0.0255	-2746.74
0.9988,0.0012	-2744.63
0.9785,0.0215	-2746.39
0.9985,0.0015	-2744.65
0.9941,0.0059	-2745.03
0.9821,0.0179	-2746.07
0.9757,0.0243	-2746.63
0.9988,0.0012	-2744.63
0.9737,0.0263	-2746.81
0.9983,0.0017	-2744.67
0.9924,0.0076	-2745.18
0.9861,0.0139	-2745.72
0.9746,0.0254	-2746.73
0.9988,0.0012	-2744.63
0.9732,0.0268	-2746.86
0.9983,0.0017	-2744.67
0.9902,0.0098	-2745.37
0.9851,0.0149	-2745.81
0.9741,0.0259	-2746.77
0.9986,0.0014	-2744.65
0.9798,0.0202	-2746.27
0.9984,0.0016	-2744.66
0.9882,0.0118	-2745.54
0.9854,0.0146	-2745.78
0.9720,0.0280	-2746.96
0.9985,0.0015	-2744.65
0.9826,0.0174	-2746.02
0.9986,0.0014	-2744.65
0.9871,0.0129	-2745.63
0.9856,0.0144	-2745.77
0.9675,0.0325	-2747.37
0.9986,0.0014	-2744.65
0.9817,0.0183	-2746.10
0.9986,0.0014	-2744.64
0.9889,0.0111	-2745.48
0.9819,0.0181	-2746.08
0.9723,0.0277	-2746.94
0.9989,0.0011	-2744.63
0.9782,0.0218	-2746.41
0.9988,0.0012	-2744.63
0.9916,0.0084	-2745.25
0.9813,0.0187	-2746.14
0.9732,0.0268	-2746.86
0.9988,0.0012	-2744.63
0.9833,0.0167	-2745.97
0.9988,0.0012	-2744.63
0.9906,0.0094	-2745.33
0.9813,0.0187	-2746.14
0.9765,0.0235	-2746.57
0.9991,0.0009	-2744.61
0.9823,0.0177	-2746.05
0.9987,0.0013	-2744.64
0.9902,0.0098	-2745.36
0.9854,0.0146	-2745.78
0.9793,0.0207	-2746.32
0.9992,0.0008	-2744.59
0.9817,0.0183	-2746.10
0.9984,0.0016	-2744.67
0.9904,0.0096	-2745.35
0.9871,0.0129	-2745.64
0.9774,0.0226	-2746.49
0.9992,0.0008	-2744.59
0.9809,0.0191	-2746.17
0.9984,0.0016	-2744.67
0.9906,0.0094	-2745.33
0.9867,0.0133	-2745.67
0.9756,0.0244	-2746.65
0.9993,0.0007	-2744.59
0.9797,0.0203	-2746.29
0.9974,0.0026	-2744.75
0.9918,0.0082	-2745.23
0.9880,0.0120	-2745.55
0.9732,0.0268	-2746.86
0.9993,0.0007	-2744.59
0.9816,0.0184	-2746.12
0.9973,0.0027	-2744.76
0.9915,0.0085	-2745.26
0.9885,0.0115	-2745.52
0.9668,0.0332	-2747.43
0.9994,0.0006	-2744.58
0.9855,0.0145	-2745.77
0.9967,0.0033	-2744.81
0.9939,0.0061	-2745.05
0.9877,0.0123	-2745.58
0.9686,0.0314	-2747.27
0.9995,0.0005	-2744.57
0.9843,0.0157	-2745.88
0.9964,0.0036	-2744.83
0.9944,0.0056	-2745.01
0.9896,0.0104	-2745.42
0.9715,0.0285	-2747.01
0.9995,0.0005	-2744.57
0.9835,0.0165	-2745.95
0.9961,0.0039	-2744.86
0.9944,0.0056	-2745.01
0.9862,0.0138	-2745.72
0.9679,0.0321	-2747.33
0.9996,0.0004	-2744.56
0.9864,0.0136	-2745.70
0.9965,0.0035	-2744.83
0.9930,0.0070	-2745.13
0.9877,0.0123	-2745.59
0.9609,0.0391	-2747.97
0.9996,0.0004	-2744.56
0.9832,0.0168	-2745.97
0.9960,0.0040	-2744.87
0.9928,0.0072	-2745.14
0.9874,0.0126	-2745.61
0.9581,0.0419	-2748.22
0.9997,0.0003	-2744.56
0.9835,0.0165	-2745.95
0.9947,0.0053	-2744.98
0.9935,0.0065	-2745.08
0.9898,0.0102	-2745.40
0.9567,0.0433	-2748.35
0.9997,0.0003	-2744.55
0.9810,0.0190	-2746.17
0.9955,0.0045	-2744.91
0.9948,0.0052	-2744.97
0.9903,0.0097	-2745.36
0.9622,0.0378	-2747.85
0.9997,0.0003	-2744.56
0.9816,0.0184	-2746.12
0.9954,0.0046	-2744.92
0.9948,0.0052	-2744.97
0.9908,0.0092	-2745.32
0.9590,0.0410	-2748.13
0.9996,0.0004	-2744.56
0.9785,0.0215	-2746.39
0.9951,0.0049	-2744.95
0.9932,0.0068	-2745.11
0.9915,0.0085	-2745.25
0.9625,0.0375	-2747.82
0.9995,0.0005	-2744.57
0.9796,0.0204	-2746.29
0.9945,0.0055	-2745.00
0.9913,0.0087	-2745.27
0.9892,0.0108	-2745.46
0.9598,0.0402	-2748.07
0.9995,0.0005	-2744.57
0.9821,0.0179	-2746.07
0.9951,0.0049	-2744.94
0.9910,0.0090	-2745.30
0.9907,0.0093	-2745.33
0.9595,0.0405	-2748.10
0.9995,0.0005	-2744.57
0.9800,0.0200	-2746.25
0.9960,0.0040	-2744.87
0.9907,0.0093	-2745.32
0.9928,0.0072	-2745.15
0.9587,0.0413	-2748.16
0.9996,0.0004	-2744.56
0.9842,0.0158	-2745.89
0.9960,0.0040	-2744.87
0.9917,0.0083	-2745.23
0.9928,0.0072	-2745.14
0.9560,0.0440	-2748.41
0.9996,0.0004	-2744.56
0.9837,0.0163	-2745.93
0.9967,0.0033	-2744.81
0.9917,0.0083	-2745.24
0.9929,0.0071	-2745.13
0.9536,0.0464	-2748.63
0.9997,0.0003	-2744.56
0.9840,0.0160	-2745.90
0.9955,0.0045	-2744.91
0.9897,0.0103	-2745.41
0.9930,0.0070	-2745.13
0.9565,0.0435	-2748.37
0.9997,0.0003	-2744.56
0.9821,0.0179	-2746.07
0.9948,0.0052	-2744.97
0.9873,0.0127	-2745.62
0.9927,0.0073	-2745.15
0.9575,0.0425	-2748.28
0.9997,0.0003	-2744.56
0.9807,0.0193	-2746.19
0.9951,0.0049	-2744.95
0.9895,0.0105	-2745.43
0.9905,0.0095	-2745.34
0.9589,0.0411	-2748.14
0.9997,0.0003	-2744.55
0.9787,0.0213	-2746.37
0.9945,0.0055	-2745.00
0.9888,0.0112	-2745.49
0.9891,0.0109	-2745.47
0.9663,0.0337	-2747.48
0.9997,0.0003	-2744.56
0.9742,0.0258	-2746.77
0.9945,0.0055	-2745.00
0.9885,0.0115	-2745.52
0.9893,0.0107	-2745.44
0.9658,0.0342	-2747.52
0.9997,0.0003	-2744.55
0.9754,0.0246	-2746.66
0.9935,0.0065	-2745.08
0.9883,0.0117	-2745.53
0.9897,0.0103	-2745.41
0.9741,0.0259	-2746.78
0.9998,0.0002	-2744.55
0.9832,0.0168	-2745.97
0.9929,0.0071	-2745.13
0.9867,0.0133	-2745.67
0.9906,0.0094	-2745.33
0.9800,0.0200	-2746.26
0.9998,0.0002	-2744.54
0.9824,0.0176	-2746.04
0.9903,0.0097	-2745.36
0.9838,0.0162	-2745.93
0.9901,0.0099	-2745.38
0.9764,0.0236	-2746.57
0.9998,0.0002	-2744.55
0.9866,0.0134	-2745.68
0.9885,0.0115	-2745.51
0.9854,0.0146	-2745.78
0.9920,0.0080	-2745.21
0.9696,0.0304	-2747.17
0.9998,0.0002	-2744.55
0.9863,0.0137	-2745.70
0.9897,0.0103	-2745.41
0.9868,0.0132	-2745.66
0.9907,0.0093	-2745.33
0.9648,0.0352	-2747.61
0.9998,0.0002	-2744.55
0.9872,0.0128	-2745.62
0.9905,0.0095	-2745.34
0.9898,0.0102	-2745.40
0.9902,0.0098	-2745.36
0.9557,0.0443	-2748.44
0.9996,0.0004	-2744.56
0.9881,0.0119	-2745.55
0.9899,0.0101	-2745.39
0.9902,0.0098	-2745.36
0.9897,0.0103	-2745.41
0.9560,0.0440	-2748.41
0.9996,0.0004	-2744.56
0.9854,0.0146	-2745.78
0.9894,0.0106	-2745.43
0.9896,0.0104	-2745.42
0.9908,0.0092	-2745.31
0.9523,0.0477	-2748.75
0.9996,0.0004	-2744.56
0.9894,0.0106	-2745.43
0.9897,0.0103	-2745.41
0.9924,0.0076	-2745.18
0.9909,0.0091	-2745.31
0.9566,0.0434	-2748.36
0.9996,0.0004	-2744.56
0.9896,0.0104	-2745.42
0.9906,0.0094	-2745.33
0.9927,0.0073	-2745.15
0.9926,0.0074	-2745.16
0.9577,0.0423	-2748.26
0.9997,0.0003	-2744.56
0.9905,0.0095	-2745.34
0.9909,0.0091	-2745.30
0.9915,0.0085	-2745.25
0.9924,0.0076	-2745.18
0.9636,0.0364	-2747.72
0.9996,0.0004	-2744.56
0.9889,0.0111	-2745.48
0.9921,0.0079	-2745.20
0.9907,0.0093	-2745.32
0.9920,0.0080	-2745.21
0.9634,0.0366	-2747.74
0.9996,0.0004	-2744.56
0.9903,0.0097	-2745.36
0.9912,0.0088	-2745.28
0.9900,0.0100	-2745.38
0.9909,0.0091	-2745.31
0.9575,0.0425	-2748.28
0.9996,0.0004	-2744.56
0.9857,0.0143	-2745.75
0.9909,0.0091	-2745.31
0.9929,0.0071	-2745.13
0.9914,0.0086	-2745.27
0.9592,0.0408	-2748.12
0.9996,0.0004	-2744.57
0.9826,0.0174	-2746.03
0.9907,0.0093	-2745.32
0.9946,0.0054	-2744.99
0.9909,0.0091	-2745.30
0.9501,0.0499	-2748.96
0.9996,0.0004	-2744.57
0.9817,0.0183	-2746.11
0.9923,0.0077	-2745.19
0.9952,0.0048	-2744.94
0.9918,0.0082	-2745.23
0.9554,0.0446	-2748.47
0.9996,0.0004	-2744.57
0.9744,0.0256	-2746.75
0.9875,0.0125	-2745.60
0.9941,0.0059	-2745.03
0.9922,0.0078	-2745.19
0.9517,0.0483	-2748.81
0.9996,0.0004	-2744.56
0.9767,0.0233	-2746.54
0.9857,0.0143	-2745.76
0.9928,0.0072	-2745.14
0.9917,0.0083	-2745.24
0.9514,0.0486	-2748.84
0.9997,0.0003	-2744.56
0.9771,0.0229	-2746.51
0.9870,0.0130	-2745.64
0.9922,0.0078	-2745.20
0.9916,0.0084	-2745.24
0.9576,0.0424	-2748.26
0.9996,0.0004	-2744.57
0.9733,0.0267	-2746.85
0.9864,0.0136	-2745.69
0.9920,0.0080	-2745.21
0.9923,0.0077	-2745.19
0.9591,0.0409	-2748.13
0.9995,0.0005	-2744.57
0.9724,0.0276	-2746.93
0.9882,0.0118	-2745.54
0.9927,0.0073	-2745.15
0.9921,0.0079	-2745.20
0.9526,0.0474	-2748.73
0.9995,0.0005	-2744.57
0.9749,0.0251	-2746.71
0.9880,0.0120	-2745.56
0.9929,0.0071	-2745.13
0.9916,0.0084	-2745.24
0.9440,0.0560	-2749.53
0.9995,0.0005	-2744.57
0.9726,0.0274	-2746.91
0.9896,0.0104	-2745.42
0.9951,0.0049	-2744.95
0.9919,0.0081	-2745.22
0.9543,0.0457	-2748.57
0.9996,0.0004	-2744.56
0.9686,0.0314	-2747.27
0.9858,0.0142	-2745.75
0.9956,0.0044	-2744.90
0.9928,0.0072	-2745.14
0.9618,0.0382	-2747.88
0.9996,0.0004	-2744.56
0.9685,0.0315	-2747.27
0.9817,0.0183	-2746.11
0.9956,0.0044	-2744.91
0.9906,0.0094	-2745.33
0.9694,0.0306	-2747.20
0.9996,0.0004	-2744.56
0.9671,0.0329	-2747.41
0.9835,0.0165	-2745.95
0.9959,0.0041	-2744.87
0.9888,0.0112	-2745.49
0.9658,0.0342	-2747.52
0.9997,0.0003	-2744.56
0.9646,0.0354	-2747.63
0.9828,0.0172	-2746.01
0.9960,0.0040	-2744.87
0.9899,0.0101	-2745.39
0.9677,0.0323	-2747.35
0.9996,0.0004	-2744.56
0.9725,0.0275	-2746.92
0.9837,0.0163	-2745.93
0.9962,0.0038	-2744.85
0.9900,0.0100	-2745.38
0.9718,0.0282	-2746.98
0.9995,0.0005	-2744.57
0.9815,0.0185	-2746.12
0.9835,0.0165	-2745.95
0.9968,0.0032	-2744.80
0.9903,0.0097	-2745.36
0.9657,0.0343	-2747.53
0.9995,0.0005	-2744.57
0.9760,0.0240	-2746.61
0.9827,0.0173	-2746.02
0.9968,0.0032	-2744.80
0.9906,0.0094	-2745.34
0.9675,0.0325	-2747.37
0.9995,0.0005	-2744.57
0.9792,0.0208	-2746.33
0.9806,0.0194	-2746.20
0.9970,0.0030	-2744.78
0.9920,0.0080	-2745.21
0.9741,0.0259	-2746.78
0.9995,0.0005	-2744.57
0.9819,0.0181	-2746.09
0.9786,0.0214	-2746.38
0.9978,0.0022	-2744.71
0.9931,0.0069	-2745.12
0.9605,0.0395	-2748.00
0.9996,0.0004	-2744.56
0.9837,0.0163	-2745.93
0.9831,0.0169	-2745.99
0.9984,0.0016	-2744.66
0.9919,0.0081	-2745.22
0.9667,0.0333	-2747.44
0.9996,0.0004	-2744.56
0.9853,0.0147	-2745.79
0.9794,0.0206	-2746.31
0.9987,0.0013	-2744.64
0.9929,0.0071	-2745.13
0.9668,0.0332	-2747.43
0.9995,0.0005	-2744.57
0.9849,0.0151	-2745.83
0.9813,0.0187	-2746.14
0.9989,0.0011	-2744.62
0.9905,0.0095	-2745.34
0.9642,0.0358	-2747.66
0.9996,0.0004	-2744.57
0.9884,0.0116	-2745.53
0.9834,0.0166	-2745.96
0.9986,0.0014	-2744.65
0.9916,0.0084	-2745.24
0.9556,0.0444	-2748.45
0.9995,0.0005	-2744.57
0.9890,0.0110	-2745.47
0.9835,0.0165	-2745.95
0.9987,0.0013	-2744.64
0.9924,0.0076	-2745.18
0.9625,0.0375	-2747.82
0.9994,0.0006	-2744.58
0.9866,0.0134	-2745.68
0.9826,0.0174	-2746.02
0.9985,0.0015	-2744.65
0.9912,0.0088	-2745.28
0.9649,0.0351	-2747.60
0.9995,0.0005	-2744.57
0.9842,0.0158	-2745.89
0.9821,0.0179	-2746.07
0.9985,0.0015	-2744.65
0.9892,0.0108	-2745.45
0.9617,0.0383	-2747.89
0.9996,0.0004	-2744.56
0.9854,0.0146	-2745.78
0.9857,0.0143	-2745.75
0.9987,0.0013	-2744.64
0.9889,0.0111	-2745.48
0.9640,0.0360	-2747.68
0.9996,0.0004	-2744.56
0.9870,0.0130	-2745.64
0.9869,0.0131	-2745.65
0.9987,0.0013	-2744.63
0.9877,0.0123	-2745.58
0.9628,0.0372	-2747.79
0.9995,0.0005	-2744.57
0.9839,0.0161	-2745.91
0.9862,0.0138	-2745.71
0.9987,0.0013	-2744.64
0.9879,0.0121	-2745.57
0.9686,0.0314	-2747.27
0.9996,0.0004	-2744.57
0.9869,0.0131	-2745.65
0.9812,0.0188	-2746.15
0.9987,0.0013	-2744.63
0.9872,0.0128	-2745.62
0.9678,0.0322	-2747.34
0.9995,0.0005	-2744.57
0.9844,0.0156	-2745.87
0.9858,0.0142	-2745.75
0.9987,0.0013	-2744.64
0.9883,0.0117	-2745.53
0.9630,0.0370	-2747.77
0.9996,0.0004	-2744.56
0.9868,0.0132	-2745.66
0.9843,0.0157	-2745.88
0.9990,0.0010	-2744.62
0.9878,0.0122	-2745.57
0.9644,0.0356	-2747.65
0.9996,0.0004	-2744.56
0.9880,0.0120	-2745.56
0.9831,0.0169	-2745.99
0.9990,0.0010	-2744.61
0.9864,0.0136	-2745.70
0.9650,0.0350	-2747.59
0.9997,0.0003	-2744.55
0.9880,0.0120	-2745.56
0.9832,0.0168	-2745.97
0.9991,0.0009	-2744.60
0.9878,0.0122	-2745.57
0.9669,0.0331	-2747.42
0.9997,0.0003	-2744.56
0.9905,0.0095	-2745.34
0.9844,0.0156	-2745.87
0.9992,0.0008	-2744.60
0.9890,0.0110	-2745.47
0.9729,0.0271	-2746.89
0.9998,0.0002	-2744.55
0.9898,0.0102	-2745.40
0.9871,0.0129	-2745.63
0.9988,0.0012	-2744.63
0.9896,0.0104	-2745.42
0.9761,0.0239	-2746.60
0.9998,0.0002	-2744.55
0.9881,0.0119	-2745.55
0.9839,0.0161	-2745.91
0.9988,0.0012	-2744.63
0.9854,0.0146	-2745.78
0.9788,0.0212	-2746.36
0.9998,0.0002	-2744.55
0.9886,0.0114	-2745.51
0.9829,0.0171	-2746.00
0.9986,0.0014	-2744.64
0.9835,0.0165	-2745.95
0.9805,0.0195	-2746.22
0.9998,0.0002	-2744.55
0.9872,0.0128	-2745.62
0.9833,0.0167	-2745.97
0.9990,0.0010	-2744.62
0.9852,0.0148	-2745.80
0.9821,0.0179	-2746.07
0.9998,0.0002	-2744.55
0.9876,0.0124	-2745.59
0.9827,0.0173	-2746.02
0.9991,0.0009	-2744.60
0.9838,0.0162	-2745.92
0.9845,0.0155	-2745.86
0.9998,0.0002	-2744.55
0.9887,0.0113	-2745.50
0.9832,0.0168	-2745.98
0.9993,0.0007	-2744.59
0.9780,0.0220	-2746.43
0.9800,0.0200	-2746.25
0.9998,0.0002	-2744.54
0.9915,0.0085	-2745.25
0.9843,0.0157	-2745.88
0.9991,0.0009	-2744.60
0.9782,0.0218	-2746.41
0.9828,0.0172	-2746.01
0.9998,0.0002	-2744.55
0.9932,0.0068	-2745.10
0.9830,0.0170	-2745.99
0.9992,0.0008	-2744.59
0.9756,0.0244	-2746.65
0.9821,0.0179	-2746.07
0.9998,0.0002	-2744.55
0.9923,0.0077	-2745.18
0.9850,0.0150	-2745.82
0.9992,0.0008	-2744.60
0.9730,0.0270	-2746.87
0.9788,0.0212	-2746.36
0.9997,0.0003	-2744.55
0.9939,0.0061	-2745.05
0.9872,0.0128	-2745.63
0.9989,0.0011	-2744.62
0.9679,0.0321	-2747.33
0.9822,0.0178	-2746.06
0.9997,0.0003	-2744.56
0.9926,0.0074	-2745.16
0.9847,0.0153	-2745.85
0.9990,0.0010	-2744.61
0.9617,0.0383	-2747.89
0.9816,0.0184	-2746.12
0.9997,0.0003	-2744.55
0.9905,0.0095	-2745.34
0.9873,0.0127	-2745.61
0.9992,0.0008	-2744.60
0.9518,0.0482	-2748.80
0.9797,0.0203	-2746.28
0.9997,0.0003	-2744.55
0.9927,0.0073	-2745.15
0.9889,0.0111	-2745.48
0.9991,0.0009	-2744.61
0.9542,0.0458	-2748.58
0.9840,0.0160	-2745.91
0.9996,0.0004	-2744.56
0.9926,0.0074	-2745.16
0.9896,0.0104	-2745.42
0.9991,0.0009	-2744.60
0.9544,0.0456	-2748.56
0.9862,0.0138	-2745.71
0.9996,0.0004	-2744.56
0.9902,0.0098	-2745.36
0.9921,0.0079	-2745.21
0.9991,0.0009	-2744.61
0.9567,0.0433	-2748.34
0.9824,0.0176	-2746.04
0.9997,0.0003	-2744.55
0.9918,0.0082	-2745.23
0.9938,0.0062	-2745.06
0.9991,0.0009	-2744.60
0.9621,0.0379	-2747.86
0.9848,0.0152	-2745.83
0.9997,0.0003	-2744.56
0.9916,0.0084	-2745.25
0.9910,0.0090	-2745.30
0.9991,0.0009	-2744.61
0.9635,0.0365	-2747.73
0.9859,0.0141	-2745.74
0.9997,0.0003	-2744.56
0.9911,0.0089	-2745.29
0.9897,0.0103	-2745.41
0.9990,0.0010	-2744.61
0.9664,0.0336	-2747.47
0.9871,0.0129	-2745.64
0.9997,0.0003	-2744.56
0.9907,0.0093	-2745.32
0.9909,0.0091	-2745.31
0.9988,0.0012	-2744.63
0.9514,0.0486	-2748.84
0.9853,0.0147	-2745.79
0.9996,0.0004	-2744.56
0.9925,0.0075	-2745.17
0.9869,0.0131	-2745.65
0.9989,0.0011	-2744.62
0.9505,0.0495	-2748.92
0.9865,0.0135	-2745.69
0.9996,0.0004	-2744.56
0.9932,0.0068	-2745.11
0.9849,0.0151	-2745.83
0.9989,0.0011	-2744.62
0.9577,0.0423	-2748.26
0.9818,0.0182	-2746.10
0.9996,0.0004	-2744.56
0.9937,0.0063	-2745.07
0.9848,0.0152	-2745.84
0.9987,0.0013	-2744.64
0.9614,0.0386	-2747.92
0.9818,0.0182	-2746.10
0.9996,0.0004	-2744.56
0.9944,0.0056	-2745.01
0.9837,0.0163	-2745.93
0.9986,0.0014	-2744.65
0.9668,0.0332	-2747.43
0.9751,0.0249	-2746.68
0.9996,0.0004	-2744.56
0.9938,0.0062	-2745.06
0.9821,0.0179	-2746.07
0.9987,0.0013	-2744.64
0.9611,0.0389	-2747.95
0.9763,0.0237	-2746.58
0.9996,0.0004	-2744.56
0.9947,0.0053	-2744.98
0.9796,0.0204	-2746.29
0.9988,0.0012	-2744.63
0.9585,0.0415	-2748.18
0.9776,0.0224	-2746.47
0.9996,0.0004	-2744.56
0.9932,0.0068	-2745.11
0.9761,0.0239	-2746.60
0.9988,0.0012	-2744.63
0.9629,0.0371	-2747.78
0.9728,0.0272	-2746.89
0.9996,0.0004	-2744.56
0.9934,0.0066	-2745.09
0.9742,0.0258	-2746.77
0.9988,0.0012	-2744.63
0.9656,0.0344	-2747.54
0.9787,0.0213	-2746.37
0.9997,0.0003	-2744.55
0.9936,0.0064	-2745.07
0.9759,0.0241	-2746.62
0.9987,0.0013	-2744.64
0.9673,0.0327	-2747.38
0.9783,0.0217	-2746.41
0.9997,0.0003	-2744.56
0.9950,0.0050	-2744.96
0.9730,0.0270	-2746.87
0.9986,0.0014	-2744.65
0.9684,0.0316	-2747.29
0.9800,0.0200	-2746.26
0.9996,0.0004	-2744.56
0.9956,0.0044	-2744.91
0.9764,0.0236	-2746.57
0.9984,0.0016	-2744.67
0.9721,0.0279	-2746.96
0.9777,0.0223	-2746.46
0.9996,0.0004	-2744.56
0.9965,0.0035	-2744.83
0.9793,0.0207	-2746.32
0.9984,0.0016	-2744.66
0.9696,0.0304	-2747.18
0.9754,0.0246	-2746.66
0.9996,0.0004	-2744.56
0.9963,0.0037	-2744.85
0.9732,0.0268	-2746.86
0.9977,0.0023	-2744.73
0.9746,0.0254	-2746.73
0.9781,0.0219	-2746.42
0.9994,0.0006	-2744.58
0.9968,0.0032	-2744.80
0.9736,0.0264	-2746.82
0.9979,0.0021	-2744.71
0.9793,0.0207	-2746.32
0.9740,0.0260	-2746.79
0.9994,0.0006	-2744.58
0.9972,0.0028	-2744.76
0.9778,0.0222	-2746.45
0.9980,0.0020	-2744.70
0.9823,0.0177	-2746.05
0.9719,0.0281	-2746.98
0.9993,0.0007	-2744.59
0.9975,0.0025	-2744.74
0.9791,0.0209	-2746.33
0.9983,0.0017	-2744.67
0.9842,0.0158	-2745.89
0.9701,0.0299	-2747.13
0.9995,0.0005	-2744.57
0.9971,0.0029	-2744.77
0.9805,0.0195	-2746.21
0.9983,0.0017	-2744.67
0.9873,0.0127	-2745.61
0.9677,0.0323	-2747.35
0.9995,0.0005	-2744.57
0.9973,0.0027	-2744.76
0.9842,0.0158	-2745.89
0.9983,0.0017	-2744.67
0.9863,0.0137	-2745.71
0.9719,0.0281	-2746.97
0.9996,0.0004	-2744.56
0.9977,0.0023	-2744.73
0.9842,0.0158	-2745.89
0.9980,0.0020	-2744.70
0.9874,0.0126	-2745.61
0.9742,0.0258	-2746.76
0.9997,0.0003	-2744.56
0.9978,0.0022	-2744.72
0.9824,0.0176	-2746.04
0.9982,0.0018	-2744.68
0.9887,0.0113	-2745.49
0.9754,0.0246	-2746.66
0.9996,0.0004	-2744.56
0.9981,0.0019	-2744.69
0.9847,0.0153	-2745.84
0.9980,0.0020	-2744.70
0.9913,0.0087	-2745.27
0.9786,0.0214	-2746.38
0.9995,0.0005	-2744.57
0.9982,0.0018	-2744.68
0.9827,0.0173	-2746.02
0.9982,0.0018	-2744.68
0.9887,0.0113	-2745.50
0.9779,0.0221	-2746.44
0.9996,0.0004	-2744.56
0.9980,0.0020	-2744.70
0.9849,0.0151	-2745.83
0.9982,0.0018	-2744.68
0.9885,0.0115	-2745.52
0.9785,0.0215	-2746.39
0.9994,0.0006	-2744.58
0.9970,0.0030	-2744.79
0.9877,0.0123	-2745.58
0.9985,0.0015	-2744.65
0.9876,0.0124	-2745.59
0.9809,0.0191	-2746.17
0.9992,0.0008	-2744.59
0.9969,0.0031	-2744.79
0.9903,0.0097	-2745.36
0.9986,0.0014	-2744.64
0.9891,0.0109	-2745.46
0.9830,0.0170	-2745.99
0.9991,0.0009	-2744.60
0.9969,0.0031	-2744.79
0.9921,0.0079	-2745.20
0.9988,0.0012	-2744.63
0.9896,0.0104	-2745.41
0.9836,0.0164	-2745.94
0.9993,0.0007	-2744.59
0.9964,0.0036	-2744.84
0.9896,0.0104	-2745.42
0.9989,0.0011	-2744.63
0.9879,0.0121	-2745.57
0.9851,0.0149	-2745.81
0.9993,0.0007	-2744.59
0.9962,0.0038	-2744.86
0.9857,0.0143	-2745.76
0.9986,0.0014	-2744.65
0.9901,0.0099	-2745.38
0.9834,0.0166	-2745.96
0.9992,0.0008	-2744.60
0.9948,0.0052	-2744.97
0.9865,0.0135	-2745.69
0.9990,0.0010	-2744.62
0.9905,0.0095	-2745.34
0.9871,0.0129	-2745.64
0.9993,0.0007	-2744.59
0.9957,0.0043	-2744.90
0.9830,0.0170	-2745.99
0.9989,0.0011	-2744.62
0.9929,0.0071	-2745.13
0.9892,0.0108	-2745.45
0.9993,0.0007	-2744.59
0.9956,0.0044	-2744.90
0.9848,0.0152	-2745.83
0.9990,0.0010	-2744.61
0.9945,0.0055	-2745.00
0.9873,0.0127	-2745.62
0.9993,0.0007	-2744.59
0.9961,0.0039	-2744.86
0.9874,0.0126	-2745.61
0.9989,0.0011	-2744.62
0.9944,0.0056	-2745.01
0.9864,0.0136	-2745.70
0.9994,0.0006	-2744.58
0.9960,0.0040	-2744.87
0.9862,0.0138	-2745.72
0.9986,0.0014	-2744.65
0.9953,0.0047	-2744.93
0.9870,0.0130	-2745.64
0.9995,0.0005	-2744.57
0.9954,0.0046	-2744.92
0.9847,0.0153	-2745.84
0.9989,0.0011	-2744.62
0.9957,0.0043	-2744.90
0.9879,0.0121	-2745.56
0.9994,0.0006	-2744.58
0.9957,0.0043	-2744.90
0.9882,0.0118	-2745.54
0.9989,0.0011	-2744.63
0.9954,0.0046	-2744.92
0.9851,0.0149	-2745.80
0.9994,0.0006	-2744.58
0.9965,0.0035	-2744.82
0.9897,0.0103	-2745.41
0.9989,0.0011	-2744.62
0.9956,0.0044	-2744.91
0.9862,0.0138	-2745.72
0.9992,0.0008	-2744.60
0.9971,0.0029	-2744.77
0.9899,0.0101	-2745.39
0.9988,0.0012	-2744.63
0.9949,0.0051	-2744.96
0.9879,0.0121	-2745.56
0.9993,0.0007	-2744.59
0.9970,0.0030	-2744.78
0.9886,0.0114	-2745.50
0.9987,0.0013	-2744.64
0.9940,0.0060	-2745.04
0.9889,0.0111	-2745.48
0.9993,0.0007	-2744.59
0.9972,0.0028	-2744.77
0.9883,0.0117	-2745.53
0.9986,0.0014	-2744.65
0.9945,0.0055	-2745.00
0.9899,0.0101	-2745.39
0.9992,0.0008	-2744.60
0.9966,0.0034	-2744.82
0.9884,0.0116	-2745.52
0.9987,0.0013	-2744.64
0.9947,0.0053	-2744.98
0.9910,0.0090	-2745.30
0.9994,0.0006	-2744.58
0.9966,0.0034	-2744.82
0.9902,0.0098	-2745.36
0.9985,0.0015	-2744.65
0.9945,0.0055	-2745.00
0.9899,0.0101	-2745.39
0.9995,0.0005	-2744.57
0.9966,0.0034	-2744.82
0.9931,0.0069	-2745.12
0.9983,0.0017	-2744.67
0.9938,0.0062	-2745.06
0.9918,0.0082	-2745.23
0.9996,0.0004	-2744.57
0.9965,0.0035	-2744.82
0.9940,0.0060	-2745.04
0.9986,0.0014	-2744.65
0.9953,0.0047	-2744.93
0.9926,0.0074	-2745.16
0.9996,0.0004	-2744.56
0.9962,0.0038	-2744.85
0.9929,0.0071	-2745.14
0.9986,0.0014	-2744.65
0.9951,0.0049	-2744.94
0.9933,0.0067	-2745.10
0.9996,0.0004	-2744.56
0.9947,0.0053	-2744.98
0.9912,0.0088	-2745.28
0.9988,0.0012	-2744.63
0.9949,0.0051	-2744.96
0.9940,0.0060	-2745.04
0.9997,0.0003	-2744.56
0.9928,0.0072	-2745.14
0.9910,0.0090	-2745.30
0.9990,0.0010	-2744.61
0.9949,0.0051	-2744.96
0.9935,0.0065	-2745.08
0.9996,0.0004	-2744.56
0.9927,0.0073	-2745.15
0.9921,0.0079	-2745.20
0.9991,0.0009	-2744.61
0.9944,0.0056	-2745.01
0.9918,0.0082	-2745.23
0.9996,0.0004	-2744.56
0.9938,0.0062	-2745.06
0.9926,0.0074	-2745.16
0.9993,0.0007	-2744.59
0.9940,0.0060	-2745.04
0.9924,0.0076	-2745.18
0.9996,0.0004	-2744.56
0.9946,0.0054	-2744.98
0.9944,0.0056	-2745.00
0.9992,0.0008	-2744.59
0.9927,0.0073	-2745.15
0.9916,0.0084	-2745.25
0.9997,0.0003	-2744.55
0.9930,0.0070	-2745.13
0.9934,0.0066	-2745.09
0.9993,0.0007	-2744.59
0.9913,0.0087	-2745.28
0.9937,0.0063	-2745.07
0.9997,0.0003	-2744.55
0.9938,0.0062	-2745.06
0.9934,0.0066	-2745.09
0.9992,0.0008	-2744.59
0.9903,0.0097	-2745.36
0.9930,0.0070	-2745.12
0.9998,0.0002	-2744.55
0.9953,0.0047	-2744.93
0.9931,0.0069	-2745.11
0.9993,0.0007	-2744.59
0.9909,0.0091	-2745.31
0.9918,0.0082	-2745.23
0.9998,0.0002	-2744.54
0.9950,0.0050	-2744.95
0.9943,0.0057	-2745.01
0.9993,0.0007	-2744.59
0.9903,0.0097	-2745.36
0.9932,0.0068	-2745.11
0.9998,0.0002	-2744.55
0.9958,0.0042	-2744.88
0.9952,0.0048	-2744.94
0.9994,0.0006	-2744.58
0.9908,0.0092	-2745.32
0.9932,0.0068	-2745.11
0.9998,0.0002	-2744.55
0.9948,0.0052	-2744.97
0.9958,0.0042	-2744.88
0.9994,0.0006	-2744.58
0.9927,0.0073	-2745.15
0.9926,0.0074	-2745.16
0.9998,0.0002	-2744.55
0.9944,0.0056	-2745.00
0.9962,0.0038	-2744.85
0.9994,0.0006	-2744.58
0.9919,0.0081	-2745.22
0.9912,0.0088	-2745.28
0.9998,0.0002	-2744.55
0.9945,0.0055	-2745.00
0.9959,0.0041	-2744.88
0.9994,0.0006	-2744.58
0.9928,0.0072	-2745.15
0.9906,0.0094	-2745.33
0.9998,0.0002	-2744.54
0.9939,0.0061	-2745.05
0.9958,0.0042	-2744.88
0.9993,0.0007	-2744.59
0.9933,0.0067	-2745.10
0.9916,0.0084	-2745.25
0.9999,0.0001	-2744.54
0.9935,0.0065	-2745.08
0.9955,0.0045	-2744.91
0.9993,0.0007	-2744.59
0.9890,0.0110	-2745.47
0.9920,0.0080	-2745.21
0.9999,0.0001	-2744.54
0.9939,0.0061	-2745.05
0.9959,0.0041	-2744.88
0.9992,0.0008	-2744.59
0.9911,0.0089	-2745.29
0.9918,0.0082	-2745.23
0.9999,0.0001	-2744.54
0.9943,0.0057	-2745.01
0.9962,0.0038	-2744.86
0.9991,0.0009	-2744.61
0.9903,0.0097	-2745.36
0.9934,0.0066	-2745.09
0.9999,0.0001	-2744.54
0.9932,0.0068	-2745.11
0.9955,0.0045	-2744.91
0.9991,0.0009	-2744.60
0.9917,0.0083	-2745.23
0.9922,0.0078	-2745.19
0.9999,0.0001	-2744.54
0.9935,0.0065	-2745.08
0.9939,0.0061	-2745.04
0.9988,0.0012	-2744.63
0.9931,0.0069	-2745.11
0.9926,0.0074	-2745.16
0.9999,0.0001	-2744.53
0.9926,0.0074	-2745.16
0.9945,0.0055	-2745.00
0.9988,0.0012	-2744.63
0.9939,0.0061	-2745.05
0.9914,0.0086	-2745.26
0.9999,0.0001	-2744.54
0.9934,0.0066	-2745.09
0.9934,0.0066	-2745.09
0.9990,0.0010	-2744.61
0.9928,0.0072	-2745.15
0.9906,0.0094	-2745.33
0.9999,0.0001	-2744.54
0.9936,0.0064	-2745.07
0.9941,0.0059	-2745.03
0.9989,0.0011	-2744.62
0.9929,0.0071	-2745.14
0.9938,0.0062	-2745.05
0.9999,0.0001	-2744.54
0.9933,0.0067	-2745.10
0.9939,0.0061	-2745.05
0.9991,0.0009	-2744.61
0.9931,0.0069	-2745.11
0.9942,0.0058	-2745.03
0.9999,0.0001	-2744.54
0.9929,0.0071	-2745.14
0.9938,0.0062	-2745.06
0.9990,0.0010	-2744.62
0.9943,0.0057	-2745.02
0.9943,0.0057	-2745.02
0.9999,0.0001	-2744.54
0.9915,0.0085	-2745.25
0.9944,0.0056	-2745.01
0.9990,0.0010	-2744.61
0.9954,0.0046	-2744.92
0.9936,0.0064	-2745.07
0.9999,0.0001	-2744.54
0.9910,0.0090	-2745.29
0.9955,0.0045	-2744.91
0.9992,0.0008	-2744.60
0.9955,0.0045	-2744.91
0.9940,0.0060	-2745.04
0.9999,0.0001	-2744.54
0.9900,0.0100	-2745.38
0.9944,0.0056	-2745.01
0.9992,0.0008	-2744.59
0.9951,0.0049	-2744.94
0.9945,0.0055	-2745.00
0.9999,0.0001	-2744.54
0.9924,0.0076	-2745.18
0.9942,0.0058	-2745.03
0.9991,0.0009	-2744.61
0.9946,0.0054	-2744.99
0.9951,0.0049	-2744.95
0.9999,0.0001	-2744.54
0.9916,0.0084	-2745.25
0.9937,0.0063	-2745.06
0.9987,0.0013	-2744.64
0.9956,0.0044	-2744.90
0.9949,0.0051	-2744.96
0.9999,0.0001	-2744.54
0.9921,0.0079	-2745.20
0.9912,0.0088	-2745.28
0.9987,0.0013	-2744.64
0.9970,0.0030	-2744.79
0.9961,0.0039	-2744.86
0.9999,0.0001	-2744.54
0.9876,0.0124	-2745.59
0.9909,0.0091	-2745.30
0.9983,0.0017	-2744.68
0.9972,0.0028	-2744.76
0.9958,0.0042	-2744.88
0.9998,0.0002	-2744.54
0.9889,0.0111	-2745.48
0.9905,0.0095	-2745.34
0.9977,0.0023	-2744.72
0.9970,0.0030	-2744.79
0.9956,0.0044	-2744.91
0.9998,0.0002	-2744.54
0.9909,0.0091	-2745.30
0.9891,0.0109	-2745.47
0.9976,0.0024	-2744.74
0.9964,0.0036	-2744.84
0.9951,0.0049	-2744.94
0.9999,0.0001	-2744.54
0.9924,0.0076	-2745.18
0.9882,0.0118	-2745.54
0.9972,0.0028	-2744.76
0.9958,0.0042	-2744.89
0.9949,0.0051	-2744.96
0.9999,0.0001	-2744.54
0.9897,0.0103	-2745.41
0.9873,0.0127	-2745.62
0.9976,0.0024	-2744.73
0.9962,0.0038	-2744.85
0.9949,0.0051	-2744.97
0.9999,0.0001	-2744.54
0.9875,0.0125	-2745.60
0.9869,0.0131	-2745.66
0.9974,0.0026	-2744.75
0.9969,0.0031	-2744.79
0.9956,0.0044	-2744.90
0.9999,0.0001	-2744.54
0.9877,0.0123	-2745.58
0.9895,0.0105	-2745.43
0.9966,0.0034	-2744.81
0.9965,0.0035	-2744.83
0.9953,0.0047	-2744.93
0.9999,0.0001	-2744.54
0.9857,0.0143	-2745.75
0.9900,0.0100	-2745.38
0.9970,0.0030	-2744.78
0.9966,0.0034	-2744.82
0.9951,0.0049	-2744.95
0.9999,0.0001	-2744.54
0.9841,0.0159	-2745.89
0.9904,0.0096	-2745.35
0.9966,0.0034	-2744.82
0.9969,0.0031	-2744.80
0.9953,0.0047	-2744.93
0.9999,0.0001	-2744.54
0.9846,0.0154	-2745.85
0.9919,0.0081	-2745.22
0.9966,0.0034	-2744.82
0.9966,0.0034	-2744.82
0.9944,0.0056	-2745.00
0.9999,0.0001	-2744.54
0.9822,0.0178	-2746.06
0.9900,0.0100	-2745.38
0.9966,0.0034	-2744.82
0.9959,0.0041	-2744.88
0.9960,0.0040	-2744.87
0.9999,0.0001	-2744.54
0.9857,0.0143	-2745.75
0.9885,0.0115	-2745.52
0.9976,0.0024	-2744.73
0.9959,0.0041	-2744.87
0.9953,0.0047	-2744.93
0.9998,0.0002	-2744.54
0.9812,0.0188	-2746.15
0.9895,0.0105	-2745.43
0.9972,0.0028	-2744.77
0.9952,0.0048	-2744.94
0.9963,0.0037	-2744.84
0.9998,0.0002	-2744.54
0.9807,0.0193	-2746.20
0.9911,0.0089	-2745.28
0.9969,0.0031	-2744.79
0.9952,0.0048	-2744.94
0.9959,0.0041	-2744.88
0.9998,0.0002	-2744.55
0.9748,0.0252	-2746.71
0.9918,0.0082	-2745.23
0.9967,0.0033	-2744.81
0.9965,0.0035	-2744.83
0.9954,0.0046	-2744.92
0.9998,0.0002	-2744.55
0.9774,0.0226	-2746.48
0.9912,0.0088	-2745.28
0.9955,0.0045	-2744.91
0.9970,0.0030	-2744.79
0.9968,0.0032	-2744.80
0.9998,0.0002	-2744.55
0.9742,0.0258	-2746.77
0.9892,0.0108	-2745.45
0.9964,0.0036	-2744.83
0.9962,0.0038	-2744.85
0.9969,0.0031	-2744.79
0.9998,0.0002	-2744.55
0.9664,0.0336	-2747.47
0.9898,0.0102	-2745.40
0.9952,0.0048	-2744.94
0.9957,0.0043	-2744.89
0.9970,0.0030	-2744.78
0.9998,0.0002	-2744.55
0.9746,0.0254	-2746.73
0.9904,0.0096	-2745.35
0.9941,0.0059	-2745.03
0.9958,0.0042	-2744.89
0.9966,0.0034	-2744.82
0.9997,0.0003	-2744.55
0.9726,0.0274	-2746.91
0.9892,0.0108	-2745.45
0.9946,0.0054	-2744.99
0.9948,0.0052	-2744.98
0.9962,0.0038	-2744.85
0.9997,0.0003	-2744.55
0.9746,0.0254	-2746.73
0.9906,0.0094	-2745.33
0.9945,0.0055	-2745.00
0.9955,0.0045	-2744.91
0.9957,0.0043	-2744.89
0.9998,0.0002	-2744.55
0.9830,0.0170	-2745.99
0.9922,0.0078	-2745.19
0.9948,0.0052	-2744.97
0.9948,0.0052	-2744.97
0.9955,0.0045	-2744.91
0.9998,0.0002	-2744.55
0.9850,0.0150	-2745.81
0.9920,0.0080	-2745.21
0.9933,0.0067	-2745.10
0.9946,0.0054	-2744.99
0.9952,0.0048	-2744.94
0.9997,0.0003	-2744.55
0.9856,0.0144	-2745.76
