#isoforms=['ENSG00000211445.SE.0.A.up_ENSG00000211445.SE.0.A.SE1_ENSG00000211445.SE.0.A.dn','ENSG00000211445.SE.0.B.up_ENSG00000211445.SE.0.B.dn']	exon_lens=('ENSG00000211445.SE.0.A.up',136),('ENSG00000211445.SE.0.A.SE1',426),('ENSG00000211445.SE.0.A.dn',154),('ENSG00000211445.SE.0.B.up',179),('ENSG00000211445.SE.0.B.dn',154)	iters=5000	burn_in=500	lag=10	percent_accept=96.03	proposal_type=drift	counts=(0,0):23,(0,1):2,(1,0):3,(1,1):31	assigned_counts=0:5,1:31	chrom=chr5	strand=+	mRNA_starts=151020606,151020563	mRNA_ends=151025493,151025493
sampled_psi	log_score
0.2291,0.7709	-235.89
0.0744,0.9256	-236.38
0.2106,0.7894	-234.12
0.0537,0.9463	-223.83
0.1222,0.8778	-226.87
0.0777,0.9223	-223.80
0.2669,0.7331	-241.04
0.0728,0.9272	-223.76
0.2220,0.7780	-236.96
0.0619,0.9381	-221.02
0.1468,0.8532	-225.83
0.0779,0.9221	-223.81
0.2673,0.7327	-233.98
0.0642,0.9358	-226.41
0.2322,0.7678	-234.77
0.0734,0.9266	-223.76
0.1695,0.8305	-237.95
0.0722,0.9278	-223.75
0.2740,0.7260	-238.20
0.0785,0.9215	-221.35
0.2318,0.7682	-238.35
0.0767,0.9233	-228.77
0.1856,0.8144	-242.37
0.0853,0.9147	-228.66
0.3005,0.6995	-240.70
0.0875,0.9125	-221.61
0.1570,0.8430	-234.67
0.0682,0.9318	-226.35
0.1577,0.8423	-234.67
0.0589,0.9411	-226.53
0.3079,0.6921	-235.21
0.0680,0.9320	-226.35
0.1508,0.8492	-226.00
0.0848,0.9152	-221.53
0.1604,0.8396	-234.69
0.0813,0.9187	-228.70
0.2989,0.7011	-241.52
0.0582,0.9418	-223.77
0.1382,0.8618	-225.49
0.0674,0.9326	-228.99
0.1745,0.8255	-231.72
0.0899,0.9101	-228.63
0.3047,0.6953	-239.15
0.0639,0.9361	-221.05
0.1211,0.8789	-224.86
0.0846,0.9154	-223.90
0.1545,0.8455	-231.25
0.0859,0.9141	-223.92
0.2933,0.7067	-237.90
0.0560,0.9440	-226.62
0.1422,0.8578	-227.44
0.0840,0.9160	-228.67
0.1683,0.8317	-231.56
0.0840,0.9160	-228.67
0.3007,0.6993	-240.71
0.0538,0.9462	-226.69
0.1495,0.8505	-238.11
0.1015,0.8985	-228.63
0.1578,0.8422	-226.30
0.0999,0.9001	-224.22
0.2943,0.7057	-237.94
0.0485,0.9515	-223.94
0.1640,0.8360	-234.72
0.1057,0.8943	-226.51
0.1410,0.8590	-229.21
0.0868,0.9132	-221.58
0.2452,0.7548	-235.21
0.0401,0.9599	-221.08
0.1732,0.8268	-231.68
0.0902,0.9098	-219.38
0.1477,0.8523	-232.88
0.0984,0.9016	-221.97
0.2913,0.7087	-239.61
0.0406,0.9594	-221.07
0.1715,0.8285	-236.36
0.0870,0.9130	-221.59
0.1732,0.8268	-228.56
0.1164,0.8836	-228.76
0.2633,0.7367	-239.97
0.0402,0.9598	-221.08
0.1482,0.8518	-231.14
0.0868,0.9132	-221.59
0.1960,0.8040	-237.97
0.1082,0.8918	-230.78
0.2492,0.7508	-239.75
0.0386,0.9614	-221.12
0.1617,0.8383	-229.76
0.0778,0.9222	-223.81
0.2124,0.7876	-236.80
0.0916,0.9084	-221.74
0.2311,0.7689	-237.14
0.0370,0.9630	-217.90
0.1545,0.8455	-231.26
0.0847,0.9153	-221.52
0.2249,0.7751	-228.36
0.0871,0.9129	-233.34
0.1996,0.8004	-233.83
0.0391,0.9609	-224.31
0.1501,0.8499	-225.97
0.0821,0.9179	-223.86
0.2406,0.7594	-238.50
0.0941,0.9059	-221.82
0.2004,0.7996	-236.62
0.0387,0.9613	-217.90
0.1626,0.8374	-228.15
0.0820,0.9180	-228.69
0.2046,0.7954	-236.68
0.1111,0.8889	-226.62
0.2032,0.7968	-235.29
0.0420,0.9580	-221.04
0.1596,0.8404	-229.70
0.1029,0.8971	-224.30
0.1841,0.8159	-230.49
0.1188,0.8812	-226.79
0.1751,0.8249	-236.38
0.0492,0.9508	-218.00
0.1185,0.8815	-230.79
0.0811,0.9189	-231.13
0.1818,0.8182	-234.92
0.1117,0.8883	-222.48
0.1604,0.8396	-231.38
0.0528,0.9472	-223.85
0.1175,0.8825	-224.74
0.0859,0.9141	-226.29
0.1633,0.8367	-234.71
0.1165,0.8835	-236.86
0.1861,0.8139	-236.46
0.0515,0.9485	-218.05
0.0996,0.9004	-222.02
0.1009,0.8991	-224.25
0.1645,0.8355	-231.47
0.1086,0.8914	-226.57
0.1603,0.8397	-229.72
0.0540,0.9460	-220.96
0.0962,0.9038	-224.13
0.0994,0.9006	-226.42
0.1994,0.8006	-229.65
0.0975,0.9025	-226.39
0.1928,0.8072	-230.80
0.0622,0.9378	-221.03
0.0929,0.9071	-228.62
0.0915,0.9085	-228.62
0.1835,0.8165	-233.45
0.0925,0.9075	-224.05
0.1914,0.8086	-233.63
0.0738,0.9262	-226.30
0.0894,0.9106	-228.63
0.0952,0.9048	-230.87
0.1446,0.8554	-232.85
0.0942,0.9058	-226.35
0.1764,0.8236	-227.14
0.0751,0.9249	-223.78
0.0974,0.9026	-221.94
0.1028,0.8972	-228.63
0.1480,0.8520	-231.13
0.1016,0.8984	-228.63
0.1532,0.8468	-232.94
0.0825,0.9175	-226.28
0.0893,0.9107	-223.99
0.0898,0.9102	-226.31
0.1538,0.8462	-224.42
0.0832,0.9168	-219.08
0.1861,0.8139	-236.46
0.0844,0.9156	-219.13
0.1088,0.8912	-224.47
0.0861,0.9139	-228.65
0.1854,0.8146	-233.49
0.0649,0.9351	-229.07
0.1978,0.8022	-233.78
0.0998,0.9002	-228.62
0.1221,0.8779	-224.90
0.1014,0.8986	-230.81
0.1935,0.8065	-236.53
0.0811,0.9189	-223.85
0.1469,0.8531	-229.35
0.0912,0.9088	-228.62
0.1598,0.8402	-231.36
0.1170,0.8830	-228.77
0.1879,0.8121	-229.16
0.0903,0.9097	-233.24
0.1211,0.8789	-224.86
0.0692,0.9308	-223.74
0.1179,0.8821	-226.77
0.1406,0.8594	-223.77
0.1804,0.8196	-237.93
0.1110,0.8890	-222.45
0.1320,0.8680	-227.13
0.0656,0.9344	-223.73
0.1372,0.8628	-227.29
0.1074,0.8926	-224.43
0.1561,0.8439	-226.22
0.1131,0.8869	-222.54
0.1511,0.8489	-231.19
0.0810,0.9190	-223.85
0.1696,0.8304	-231.59
0.1034,0.8966	-230.80
0.1655,0.8345	-233.11
0.1304,0.8696	-230.88
0.1422,0.8578	-229.24
0.0765,0.9235	-223.79
0.1818,0.8182	-228.90
0.1206,0.8794	-230.80
0.1856,0.8144	-230.54
0.1507,0.8493	-239.83
0.1393,0.8607	-225.53
0.0946,0.9054	-228.61
0.1916,0.8084	-237.95
0.1263,0.8737	-226.98
0.2223,0.7777	-235.72
0.1321,0.8679	-227.14
0.1380,0.8620	-230.98
0.0828,0.9172	-226.28
0.1971,0.8029	-236.58
0.1176,0.8824	-224.74
0.2062,0.7938	-236.70
0.1586,0.8414	-233.01
0.1146,0.8854	-232.83
0.0809,0.9191	-221.42
0.1801,0.8199	-236.41
0.1068,0.8932	-224.41
0.2205,0.7795	-238.20
0.1450,0.8550	-238.18
0.1338,0.8662	-225.32
0.0654,0.9346	-223.73
0.1724,0.8276	-237.94
0.0992,0.9008	-228.62
0.2253,0.7747	-238.26
0.1547,0.8453	-232.96
0.1207,0.8793	-226.83
0.0657,0.9343	-221.08
0.1448,0.8552	-232.85
0.0819,0.9181	-231.11
0.2266,0.7734	-232.14
0.1457,0.8543	-232.86
0.1412,0.8588	-225.61
0.0764,0.9236	-228.78
0.1500,0.8500	-227.70
0.0833,0.9167	-228.68
0.2060,0.7940	-232.65
0.1089,0.8911	-226.57
0.1689,0.8311	-229.98
0.0801,0.9199	-221.39
0.1609,0.8391	-233.04
0.0590,0.9410	-218.23
0.1788,0.8212	-227.26
0.1079,0.8921	-237.12
0.1427,0.8573	-225.67
0.0774,0.9226	-226.28
0.1845,0.8155	-233.47
0.0660,0.9340	-218.43
0.1866,0.8134	-232.05
0.0959,0.9041	-224.13
0.1498,0.8502	-236.37
0.0806,0.9194	-228.71
0.2018,0.7982	-236.64
0.0790,0.9210	-231.19
0.1866,0.8134	-232.05
0.0931,0.9069	-226.34
0.1702,0.8298	-226.86
0.0691,0.9309	-223.74
0.2115,0.7885	-240.73
0.0724,0.9276	-226.31
0.1509,0.8491	-236.37
0.0829,0.9171	-226.28
0.2109,0.7891	-232.81
0.0675,0.9325	-228.99
0.1987,0.8013	-231.02
0.0802,0.9198	-231.15
0.1887,0.8113	-239.40
0.0803,0.9197	-226.27
0.2264,0.7736	-237.05
0.0610,0.9390	-221.01
0.1952,0.8048	-235.14
0.0799,0.9201	-223.83
0.1429,0.8571	-227.47
0.0905,0.9095	-226.32
0.2043,0.7957	-238.03
0.0548,0.9452	-232.36
0.1764,0.8236	-236.39
0.0627,0.9373	-226.45
0.1503,0.8497	-229.44
0.0799,0.9201	-221.39
0.1524,0.8476	-231.21
0.0433,0.9567	-221.02
0.1623,0.8377	-233.06
0.0606,0.9394	-221.01
0.1323,0.8677	-227.14
0.1026,0.8974	-226.46
0.1417,0.8583	-225.63
0.0606,0.9394	-223.75
0.1414,0.8586	-229.22
0.0501,0.9499	-220.96
0.1080,0.8920	-226.56
0.0984,0.9016	-233.05
0.1492,0.8508	-234.64
0.0747,0.9253	-223.77
0.1200,0.8800	-226.82
0.0578,0.9422	-223.77
0.1041,0.8959	-224.34
0.0875,0.9125	-223.95
0.1356,0.8644	-232.80
0.0687,0.9313	-218.52
0.1540,0.8460	-234.65
0.0560,0.9440	-220.97
0.0722,0.9278	-221.20
0.0875,0.9125	-226.30
0.1369,0.8631	-223.60
0.0659,0.9341	-229.04
0.1870,0.8130	-232.06
0.0519,0.9481	-226.77
0.1110,0.8890	-230.78
0.0618,0.9382	-223.74
0.1169,0.8831	-222.70
0.0848,0.9152	-223.90
0.1846,0.8154	-233.48
0.0471,0.9529	-223.99
0.0937,0.9063	-226.35
0.0557,0.9443	-223.80
0.0977,0.9023	-224.17
0.1075,0.8925	-235.01
0.1561,0.8439	-234.66
0.0394,0.9606	-217.90
0.0946,0.9054	-224.10
0.0548,0.9452	-223.81
0.1123,0.8877	-239.05
0.1030,0.8970	-222.14
0.2112,0.7888	-234.14
0.0397,0.9603	-217.90
0.1006,0.8994	-228.62
0.0823,0.9177	-228.69
0.1240,0.8760	-230.83
0.0892,0.9108	-228.63
0.2050,0.7950	-235.33
0.0463,0.9537	-224.01
0.0901,0.9099	-226.31
0.1127,0.8873	-222.52
0.0948,0.9052	-226.36
0.1033,0.8967	-226.47
0.2181,0.7819	-227.95
0.0453,0.9547	-224.04
0.1030,0.8970	-222.14
0.1001,0.8999	-228.62
0.0801,0.9199	-218.95
0.1401,0.8599	-236.45
0.2012,0.7988	-235.25
0.0510,0.9490	-223.88
0.1057,0.8943	-230.79
0.1151,0.8849	-228.74
0.0936,0.9064	-226.34
0.1338,0.8662	-229.05
0.1845,0.8155	-231.99
0.0623,0.9377	-221.03
0.1091,0.8909	-222.38
0.1069,0.8931	-232.91
0.0974,0.9026	-226.39
0.1634,0.8366	-228.18
0.2191,0.7809	-236.91
0.0596,0.9404	-226.52
0.1033,0.8967	-228.64
0.1158,0.8842	-226.72
0.1071,0.8929	-224.42
0.1631,0.8369	-224.90
0.2336,0.7664	-237.19
0.0572,0.9428	-223.78
0.0945,0.9055	-230.87
0.1402,0.8598	-234.63
0.0979,0.9021	-226.40
0.1523,0.8477	-226.06
0.2067,0.7933	-236.71
0.0535,0.9465	-226.71
0.0838,0.9162	-226.28
0.1576,0.8424	-236.35
0.0918,0.9082	-228.62
0.1358,0.8642	-225.39
0.1833,0.8167	-228.97
0.0473,0.9527	-217.97
0.0792,0.9208	-226.28
0.1507,0.8493	-229.45
0.0873,0.9127	-223.95
0.1332,0.8668	-229.04
0.1632,0.8368	-229.81
0.0434,0.9566	-217.93
0.0862,0.9138	-226.29
0.1400,0.8600	-232.82
0.0946,0.9054	-226.36
0.1522,0.8478	-227.78
0.1754,0.8246	-231.74
0.0483,0.9517	-220.97
0.0857,0.9143	-223.92
0.1287,0.8713	-228.95
0.1024,0.8976	-226.46
0.1508,0.8492	-232.91
0.1741,0.8259	-228.59
0.0440,0.9560	-217.93
0.0765,0.9235	-221.30
0.1701,0.8299	-233.19
0.1200,0.8800	-228.81
0.1532,0.8468	-236.36
0.1835,0.8165	-230.47
0.0426,0.9574	-227.25
0.0615,0.9385	-218.29
0.1524,0.8476	-232.93
0.1107,0.8893	-224.52
0.1288,0.8712	-223.22
0.1739,0.8261	-231.70
0.0425,0.9575	-224.15
0.0717,0.9283	-228.87
0.1308,0.8692	-234.67
0.1075,0.8925	-228.66
0.0990,0.9010	-224.20
0.1960,0.8040	-232.33
0.0437,0.9563	-227.18
0.0728,0.9272	-223.76
0.1211,0.8789	-228.83
0.0902,0.9098	-230.94
0.1069,0.8931	-228.66
0.1776,0.8224	-231.80
0.0636,0.9364	-221.05
0.0748,0.9252	-231.32
0.1505,0.8495	-232.91
0.0921,0.9079	-221.75
0.1362,0.8638	-229.10
0.1463,0.8537	-225.81
0.0579,0.9421	-226.56
0.0842,0.9158	-221.51
0.1563,0.8437	-232.98
0.0819,0.9181	-226.28
0.1450,0.8550	-232.86
0.1465,0.8535	-225.82
0.0517,0.9483	-220.96
0.0926,0.9074	-228.62
0.1682,0.8318	-229.96
0.0895,0.9105	-230.95
0.1686,0.8314	-229.97
0.1428,0.8572	-231.05
0.0426,0.9574	-217.92
0.0751,0.9249	-236.33
0.1537,0.8463	-232.95
0.1082,0.8918	-228.67
0.2006,0.7994	-228.33
0.1436,0.8564	-227.49
0.0480,0.9520	-223.96
0.0762,0.9238	-221.29
0.1337,0.8663	-236.53
0.1186,0.8814	-228.79
0.1116,0.8884	-228.70
0.1291,0.8709	-228.96
0.0520,0.9480	-220.96
0.0670,0.9330	-221.10
0.0994,0.9006	-228.62
0.1105,0.8895	-228.69
0.0976,0.9024	-224.17
0.1214,0.8786	-224.87
0.0455,0.9545	-230.12
0.0667,0.9333	-218.46
0.1294,0.8706	-230.87
0.1195,0.8805	-230.80
0.1045,0.8955	-222.20
0.1183,0.8817	-232.80
0.0481,0.9519	-220.97
0.0716,0.9284	-221.19
0.1310,0.8690	-225.21
0.0969,0.9031	-226.38
0.1301,0.8699	-228.98
0.1124,0.8876	-228.71
0.0425,0.9575	-221.03
0.0904,0.9096	-226.32
0.1402,0.8598	-231.01
0.1370,0.8630	-232.80
0.1311,0.8689	-236.56
0.1168,0.8832	-230.79
0.0436,0.9564	-227.19
0.1086,0.8914	-226.57
0.1141,0.8859	-228.73
0.1423,0.8577	-225.65
0.1409,0.8591	-231.02
0.1314,0.8686	-234.67
0.0385,0.9615	-217.90
0.1231,0.8769	-224.93
0.1071,0.8929	-228.66
0.1666,0.8334	-234.74
0.1347,0.8653	-230.93
0.1206,0.8794	-230.80
0.0487,0.9513	-226.91
0.1178,0.8822	-224.75
0.1180,0.8820	-228.78
0.1764,0.8236	-231.77
0.1559,0.8441	-231.28
0.1158,0.8842	-236.88
0.0375,0.9625	-217.90
0.0990,0.9010	-233.04
0.1045,0.8955	-228.64
0.1857,0.8143	-232.02
0.1904,0.8096	-232.16
0.1168,0.8832	-224.72
0.0357,0.9643	-217.91
0.0902,0.9098	-226.31
0.0889,0.9111	-219.32
0.1579,0.8421	-229.65
0.1589,0.8411	-229.68
0.0972,0.9028	-226.39
0.0284,0.9716	-225.08
0.0830,0.9170	-219.07
0.0859,0.9141	-233.38
0.1375,0.8625	-229.13
0.1442,0.8558	-225.73
0.0727,0.9273	-221.21
0.0245,0.9755	-221.84
0.1009,0.8991	-226.44
0.0897,0.9103	-221.67
0.1153,0.8847	-220.59
0.1466,0.8534	-225.82
0.0778,0.9222	-223.81
0.0289,0.9711	-221.52
0.1074,0.8926	-224.43
0.0764,0.9236	-223.79
0.0958,0.9042	-228.61
0.1151,0.8849	-226.70
0.0961,0.9039	-221.89
0.0310,0.9690	-217.96
0.1174,0.8826	-228.77
0.0821,0.9179	-226.28
0.1175,0.8825	-226.76
0.1108,0.8892	-230.78
0.0976,0.9024	-228.62
0.0382,0.9618	-227.58
0.1226,0.8774	-226.88
0.0891,0.9109	-228.63
0.1057,0.8943	-226.52
0.1103,0.8897	-224.51
0.1012,0.8988	-232.99
0.0429,0.9571	-217.92
0.1135,0.8865	-228.72
0.0915,0.9085	-224.03
0.0950,0.9050	-228.61
0.1091,0.8909	-226.58
0.0977,0.9023	-226.39
0.0452,0.9548	-220.99
0.1190,0.8810	-236.80
0.0896,0.9104	-226.31
0.0671,0.9329	-223.73
0.1133,0.8867	-224.61
0.0862,0.9138	-219.20
0.0467,0.9533	-220.98
0.1399,0.8601	-231.00
0.0862,0.9138	-221.57
0.0582,0.9418	-223.77
0.1206,0.8794	-224.84
0.0730,0.9270	-228.84
0.0496,0.9504	-220.96
0.1300,0.8700	-225.18
0.0860,0.9140	-233.38
0.0808,0.9192	-223.84
0.1178,0.8822	-236.83
0.0661,0.9339	-223.73
0.0452,0.9548	-220.99
0.1328,0.8672	-225.28
0.0844,0.9156	-233.43
0.0917,0.9083	-224.03
0.0887,0.9113	-230.96
0.0739,0.9261	-221.24
0.0477,0.9523	-220.97
0.1206,0.8794	-232.79
0.0886,0.9114	-226.30
0.0930,0.9070	-226.34
0.0868,0.9132	-226.29
0.0753,0.9247	-221.27
0.0628,0.9372	-221.04
0.1434,0.8566	-234.63
0.0718,0.9282	-226.31
0.0732,0.9268	-221.22
0.0739,0.9261	-226.30
0.0929,0.9071	-226.34
0.0646,0.9354	-221.06
0.1341,0.8659	-229.06
0.0753,0.9247	-223.78
0.0679,0.9321	-223.74
0.0780,0.9220	-221.34
0.1161,0.8839	-230.78
0.0575,0.9425	-220.98
0.1371,0.8629	-230.96
0.0947,0.9053	-226.36
0.0675,0.9325	-218.48
0.0791,0.9209	-221.37
0.1155,0.8845	-226.71
0.0440,0.9560	-224.09
0.1203,0.8797	-226.82
0.1096,0.8904	-224.49
0.0744,0.9256	-226.29
0.0852,0.9148	-223.91
0.1023,0.8977	-228.63
0.0433,0.9567	-224.11
0.1109,0.8891	-226.61
0.0959,0.9041	-224.13
0.0632,0.9368	-223.74
0.0873,0.9127	-223.95
0.0975,0.9025	-226.39
0.0386,0.9614	-221.11
0.1073,0.8927	-222.31
0.0977,0.9023	-224.17
0.0795,0.9205	-223.83
0.0830,0.9170	-221.47
0.0935,0.9065	-221.80
0.0343,0.9657	-217.92
0.1092,0.8908	-226.58
0.0788,0.9212	-221.36
0.0729,0.9271	-218.67
0.0757,0.9243	-223.78
0.0740,0.9260	-221.24
0.0343,0.9657	-217.92
0.1078,0.8922	-224.44
0.0866,0.9134	-228.65
0.0804,0.9196	-221.40
0.0719,0.9281	-223.75
0.0568,0.9432	-229.41
0.0371,0.9629	-227.67
0.1218,0.8782	-228.84
0.0725,0.9275	-223.76
0.0863,0.9137	-221.57
0.0664,0.9336	-229.02
0.0478,0.9522	-223.96
0.0378,0.9622	-221.14
0.1084,0.8916	-226.56
0.0722,0.9278	-226.31
0.0898,0.9102	-230.94
0.0725,0.9275	-228.85
0.0404,0.9596	-221.07
0.0398,0.9602	-221.09
0.1380,0.8620	-229.14
0.0806,0.9194	-233.58
0.0975,0.9025	-226.39
0.0651,0.9349	-223.73
0.0368,0.9632	-224.43
0.0343,0.9657	-224.59
0.1664,0.8336	-231.52
0.0841,0.9159	-226.28
0.0888,0.9112	-226.30
0.0524,0.9476	-220.96
0.0289,0.9711	-218.01
0.0319,0.9681	-228.18
0.1548,0.8452	-229.56
0.0581,0.9419	-220.99
0.0848,0.9152	-226.28
0.0529,0.9471	-220.96
0.0319,0.9681	-217.95
0.0350,0.9650	-221.23
0.1526,0.8474	-231.22
0.0761,0.9239	-223.79
0.0730,0.9270	-223.76
0.0670,0.9330	-218.47
0.0266,0.9734	-221.68
0.0408,0.9592	-221.07
0.1246,0.8754	-226.93
0.0777,0.9223	-221.33
0.0635,0.9365	-221.05
0.0652,0.9348	-223.73
0.0221,0.9779	-218.28
0.0407,0.9593	-217.91
0.1478,0.8522	-225.87
0.0650,0.9350	-223.73
0.0735,0.9265	-221.23
0.0666,0.9334	-229.01
0.0248,0.9752	-225.49
0.0444,0.9556	-224.07
0.1437,0.8563	-227.49
0.0636,0.9364	-221.05
0.0872,0.9128	-233.34
0.0619,0.9381	-221.03
0.0260,0.9740	-218.10
0.0425,0.9575	-227.26
0.1709,0.8291	-230.04
0.0600,0.9400	-226.51
0.0655,0.9345	-226.39
0.0660,0.9340	-229.03
0.0304,0.9696	-228.36
0.0444,0.9556	-217.94
0.1703,0.8297	-236.36
0.0640,0.9360	-223.74
0.0675,0.9325	-223.73
0.0668,0.9332	-218.46
0.0323,0.9677	-224.74
0.0609,0.9391	-223.75
0.1429,0.8571	-223.88
0.0623,0.9377	-221.03
0.0615,0.9385	-218.30
0.0639,0.9361	-231.79
0.0353,0.9647	-217.91
0.0570,0.9430	-218.17
0.1439,0.8561	-236.41
0.0512,0.9488	-223.88
0.0646,0.9354	-221.06
0.0706,0.9294	-221.17
0.0413,0.9587	-217.91
0.0506,0.9494	-220.96
0.1470,0.8530	-227.60
0.0447,0.9553	-217.94
0.0639,0.9361	-218.37
0.0794,0.9206	-226.27
0.0438,0.9562	-221.01
0.0512,0.9488	-218.04
0.1383,0.8617	-227.32
0.0511,0.9489	-226.80
0.0570,0.9430	-220.98
0.0903,0.9097	-228.63
0.0439,0.9561	-221.01
0.0606,0.9394	-218.27
0.1259,0.8741	-228.90
0.0587,0.9413	-223.77
0.0713,0.9287	-226.32
0.1023,0.8977	-226.46
0.0499,0.9501	-220.96
0.0667,0.9333	-223.73
0.1271,0.8729	-228.92
0.0795,0.9205	-223.83
0.0811,0.9189	-221.42
0.0882,0.9118	-226.30
0.0440,0.9560	-224.09
0.0837,0.9163	-233.46
0.1258,0.8742	-225.02
0.0829,0.9171	-228.68
0.0714,0.9286	-226.31
0.0919,0.9081	-224.04
0.0464,0.9536	-217.96
0.0998,0.9002	-228.62
0.1335,0.8665	-230.92
0.0817,0.9183	-221.44
0.0743,0.9257	-221.25
0.1033,0.8967	-224.31
0.0566,0.9434	-226.60
0.0991,0.9009	-230.83
0.1546,0.8454	-232.96
0.1072,0.8928	-228.66
0.0802,0.9198	-223.83
0.0767,0.9233	-223.79
0.0712,0.9288	-223.75
0.1016,0.8984	-226.45
0.1683,0.8317	-231.56
0.1284,0.8716	-227.03
0.0658,0.9342	-226.39
0.1019,0.8981	-224.28
0.0704,0.9296	-221.16
0.0943,0.9057	-224.09
0.1482,0.8518	-232.89
0.1047,0.8953	-230.79
0.0809,0.9191	-226.27
0.0870,0.9130	-221.59
0.0804,0.9196	-223.84
0.0866,0.9134	-223.93
0.1500,0.8500	-227.70
0.1052,0.8948	-226.51
0.0883,0.9117	-230.97
0.0723,0.9277	-221.20
0.0709,0.9291	-226.32
0.0891,0.9109	-221.66
0.1632,0.8368	-233.08
0.0897,0.9103	-223.99
0.0881,0.9119	-221.62
0.0774,0.9226	-223.80
0.0589,0.9411	-220.99
0.0784,0.9216	-223.81
0.1378,0.8622	-227.30
0.0759,0.9241	-231.28
0.0893,0.9107	-228.63
0.0791,0.9209	-221.37
0.0578,0.9422	-232.15
0.0723,0.9277	-221.20
0.1151,0.8849	-226.70
0.0816,0.9184	-226.27
0.0782,0.9218	-218.88
0.0888,0.9112	-223.98
0.0468,0.9532	-223.99
0.0705,0.9295	-221.17
0.1208,0.8792	-224.85
0.0904,0.9096	-224.01
0.0667,0.9333	-223.73
0.0886,0.9114	-226.30
0.0399,0.9601	-221.09
0.0691,0.9309	-226.34
0.0962,0.9038	-226.37
0.0775,0.9225	-228.75
0.0702,0.9298	-221.16
0.0934,0.9066	-221.80
0.0475,0.9525	-226.97
0.0608,0.9392	-218.28
0.1119,0.8881	-224.56
0.0729,0.9271	-223.76
0.0635,0.9365	-226.43
0.0868,0.9132	-223.94
0.0492,0.9508	-218.00
0.0454,0.9546	-217.95
0.1184,0.8816	-228.78
0.0715,0.9285	-223.75
0.0613,0.9387	-221.02
0.0904,0.9096	-228.62
0.0697,0.9303	-228.92
0.0420,0.9580	-221.04
0.1187,0.8813	-224.78
0.0603,0.9397	-229.24
0.0585,0.9415	-218.21
0.1045,0.8955	-230.79
0.0629,0.9371	-218.34
0.0485,0.9515	-223.94
0.1189,0.8811	-224.79
0.0535,0.9465	-229.58
0.0593,0.9407	-223.76
0.1047,0.8953	-224.35
0.0675,0.9325	-221.11
0.0442,0.9558	-227.15
0.1209,0.8791	-226.84
0.0459,0.9541	-220.99
0.0651,0.9349	-223.73
0.0897,0.9103	-226.31
0.0789,0.9211	-223.82
0.0367,0.9633	-224.44
0.1471,0.8529	-236.39
0.0422,0.9578	-224.16
0.0780,0.9220	-221.34
0.0710,0.9290	-218.60
0.0760,0.9240	-223.79
0.0397,0.9603	-217.90
0.1489,0.8511	-231.15
0.0410,0.9590	-221.06
0.0720,0.9280	-236.54
0.0850,0.9150	-228.66
0.0828,0.9172	-226.28
0.0338,0.9662	-217.92
0.1376,0.8624	-229.13
0.0335,0.9665	-224.65
0.0676,0.9324	-228.98
0.0822,0.9178	-221.45
0.0963,0.9037	-221.90
0.0452,0.9548	-221.00
0.1231,0.8769	-232.78
0.0403,0.9597	-224.25
0.0670,0.9330	-221.10
0.0785,0.9215	-221.35
0.1171,0.8829	-232.81
0.0352,0.9648	-221.22
0.0990,0.9010	-228.62
0.0471,0.9529	-230.00
0.0654,0.9346	-221.07
0.0754,0.9246	-226.29
0.0953,0.9047	-221.86
0.0424,0.9576	-221.03
0.0959,0.9041	-224.13
0.0450,0.9550	-221.00
0.0701,0.9299	-228.91
0.0656,0.9344	-223.73
0.1002,0.8998	-226.43
0.0367,0.9633	-221.17
0.0877,0.9123	-223.96
0.0424,0.9576	-224.15
0.0684,0.9316	-223.74
0.0712,0.9288	-226.32
0.0956,0.9044	-221.87
0.0405,0.9595	-221.07
0.0731,0.9269	-223.76
0.0493,0.9507	-223.92
0.0842,0.9158	-231.05
0.0851,0.9149	-223.91
0.0846,0.9154	-226.28
0.0437,0.9563	-217.93
0.0763,0.9237	-226.28
0.0528,0.9472	-223.85
0.0781,0.9219	-226.28
0.0972,0.9028	-224.16
0.0714,0.9286	-223.75
0.0520,0.9480	-223.86
0.0719,0.9281	-221.19
0.0585,0.9415	-220.99
0.0947,0.9053	-224.10
0.1312,0.8688	-227.11
0.0831,0.9169	-226.28
0.0569,0.9431	-223.78
0.0767,0.9233	-218.82
0.0630,0.9370	-221.04
0.1281,0.8719	-227.02
0.1418,0.8582	-229.23
0.0797,0.9203	-223.83
0.0608,0.9392	-223.75
0.0879,0.9121	-221.62
0.0588,0.9412	-218.22
0.1083,0.8917	-228.67
0.1402,0.8598	-227.38
0.1006,0.8994	-224.24
0.0738,0.9262	-218.71
0.0877,0.9123	-226.30
0.0622,0.9378	-226.46
0.1044,0.8956	-228.64
0.1437,0.8563	-229.27
0.1173,0.8827	-226.75
0.0688,0.9312	-226.34
0.0967,0.9033	-233.08
0.0579,0.9421	-223.77
0.0978,0.9022	-226.39
0.1484,0.8516	-222.41
0.1062,0.8938	-228.65
0.0582,0.9418	-223.77
0.0989,0.9011	-228.62
0.0553,0.9447	-226.64
0.1230,0.8770	-222.96
0.1593,0.8407	-228.03
0.0930,0.9070	-226.34
0.0507,0.9493	-218.03
0.0887,0.9113	-221.64
0.0608,0.9392	-221.01
0.1231,0.8769	-228.86
0.1464,0.8536	-232.87
0.1056,0.8944	-224.38
0.0499,0.9501	-220.96
0.0900,0.9100	-226.31
0.0727,0.9273	-221.21
0.1208,0.8792	-222.87
0.1337,0.8663	-229.05
0.1013,0.8987	-235.18
0.0543,0.9457	-218.11
0.0999,0.9001	-222.03
0.0764,0.9236	-228.77
0.1268,0.8732	-226.99
0.1503,0.8497	-227.71
0.0994,0.9006	-224.21
0.0518,0.9482	-223.87
0.0913,0.9087	-224.03
0.0782,0.9218	-223.81
0.0932,0.9068	-233.17
0.1529,0.8471	-238.07
0.1149,0.8851	-226.70
0.0570,0.9430	-223.78
0.1132,0.8868	-224.60
0.0861,0.9139	-219.20
0.1168,0.8832	-224.72
0.1381,0.8619	-230.98
0.1299,0.8701	-225.17
0.0599,0.9401	-226.51
0.1185,0.8815	-230.79
0.0938,0.9062	-221.81
0.1001,0.8999	-224.23
0.1341,0.8659	-225.33
0.1198,0.8802	-232.79
0.0635,0.9365	-221.05
0.0956,0.9044	-224.12
0.0845,0.9155	-223.90
0.0805,0.9195	-226.27
0.1465,0.8535	-232.87
0.1127,0.8873	-228.71
0.0562,0.9438	-223.79
0.0969,0.9031	-233.08
0.0999,0.9001	-228.62
0.0973,0.9027	-224.16
0.1638,0.8362	-231.45
0.1152,0.8848	-222.63
0.0627,0.9373	-226.44
0.0981,0.9019	-226.40
0.1082,0.8918	-226.56
0.1160,0.8840	-226.72
0.1580,0.8420	-229.65
0.1279,0.8721	-225.10
0.0750,0.9250	-223.78
0.0917,0.9083	-224.03
0.1362,0.8638	-225.41
0.1319,0.8681	-225.25
0.1538,0.8462	-227.83
0.1123,0.8877	-226.64
0.0687,0.9313	-226.34
0.0840,0.9160	-226.28
0.1505,0.8495	-225.99
0.1175,0.8825	-228.77
0.1637,0.8363	-229.82
0.1135,0.8865	-228.72
0.0561,0.9439	-220.97
0.0879,0.9121	-226.30
0.1489,0.8511	-234.64
0.0897,0.9103	-223.99
0.1528,0.8472	-222.66
0.0896,0.9104	-223.99
0.0537,0.9463	-220.96
0.0828,0.9172	-226.28
0.1750,0.8250	-233.28
0.1001,0.8999	-224.23
0.1515,0.8485	-231.20
0.0738,0.9262	-228.83
0.0425,0.9575	-217.92
0.0871,0.9129	-223.94
0.1505,0.8495	-231.18
0.0828,0.9172	-221.47
0.1128,0.8872	-220.46
0.0658,0.9342	-226.39
0.0467,0.9533	-220.98
0.0924,0.9076	-228.62
0.1853,0.8147	-233.49
0.0798,0.9202	-221.38
0.1027,0.8973	-228.63
0.0799,0.9201	-231.16
0.0573,0.9427	-223.78
0.0911,0.9089	-230.92
0.1999,0.8001	-236.61
0.0821,0.9179	-221.45
0.1142,0.8858	-228.73
0.0713,0.9287	-221.18
0.0695,0.9305	-221.15
0.0980,0.9020	-228.62
0.2081,0.7919	-235.39
0.0914,0.9086	-226.32
0.0754,0.9246	-221.27
0.0749,0.9251	-226.29
0.0693,0.9307	-226.34
0.0938,0.9062	-224.08
0.1936,0.8064	-229.40
0.0854,0.9146	-228.66
0.0743,0.9257	-218.72
0.0736,0.9264	-223.76
0.0729,0.9271	-226.30
0.1138,0.8862	-226.67
0.1788,0.8212	-231.83
0.0788,0.9212	-223.82
0.0586,0.9414	-220.99
0.0683,0.9317	-223.74
0.0666,0.9334	-218.46
0.0983,0.9017	-221.97
0.1628,0.8372	-231.43
0.0761,0.9239	-223.79
0.0628,0.9372	-223.74
0.0669,0.9331	-218.46
0.0598,0.9402	-226.51
0.0920,0.9080	-230.91
0.1665,0.8335	-229.91
0.0698,0.9302	-218.56
0.0655,0.9345	-221.08
0.0629,0.9371	-229.14
0.0623,0.9377	-223.74
0.1023,0.8977	-226.46
0.1566,0.8434	-227.93
0.0767,0.9233	-226.28
0.0733,0.9267	-226.30
0.0668,0.9332	-218.46
0.0731,0.9269	-223.76
0.0814,0.9186	-219.00
0.1514,0.8486	-231.19
0.0764,0.9236	-223.79
0.0726,0.9274	-226.30
0.0580,0.9420	-220.99
0.0584,0.9416	-223.77
0.0781,0.9219	-223.81
0.1644,0.8356	-229.84
0.0843,0.9157	-223.90
0.0668,0.9332	-226.37
0.0578,0.9422	-229.36
0.0610,0.9390	-223.75
0.0568,0.9432	-223.79
0.1364,0.8636	-232.80
0.0823,0.9177	-231.10
0.0511,0.9489	-223.88
0.0610,0.9390	-223.75
0.0781,0.9219	-228.75
0.0674,0.9326	-228.99
0.1550,0.8450	-231.27
0.0859,0.9141	-219.19
0.0438,0.9562	-217.93
0.0471,0.9529	-223.98
0.0693,0.9307	-221.14
0.0727,0.9273	-228.85
0.1630,0.8370	-229.80
0.0656,0.9344	-231.70
0.0440,0.9560	-217.93
0.0426,0.9574	-221.03
0.0793,0.9207	-226.28
0.0717,0.9283	-221.19
0.1697,0.8303	-233.18
0.0691,0.9309	-221.14
0.0456,0.9544	-227.07
0.0403,0.9597	-221.08
0.0880,0.9120	-223.96
0.0915,0.9085	-230.92
0.1644,0.8356	-233.10
0.0681,0.9319	-221.12
0.0467,0.9533	-217.96
0.0488,0.9512	-220.97
0.0866,0.9134	-226.29
0.0759,0.9241	-228.78
0.1642,0.8358	-234.72
0.0635,0.9365	-218.35
0.0577,0.9423	-237.74
0.0508,0.9492	-220.96
0.1044,0.8956	-222.19
0.0671,0.9329	-221.10
0.1496,0.8504	-231.16
0.0642,0.9358	-226.41
0.0602,0.9398	-218.26
0.0476,0.9524	-220.97
0.1054,0.8946	-228.65
0.0567,0.9433	-218.16
0.1284,0.8716	-225.12
0.0735,0.9265	-221.23
0.0680,0.9320	-221.12
0.0419,0.9581	-224.17
0.0790,0.9210	-231.19
0.0663,0.9337	-221.09
0.1272,0.8728	-232.78
0.0924,0.9076	-219.48
0.0669,0.9331	-218.46
0.0421,0.9579	-221.04
0.0699,0.9301	-223.74
0.0595,0.9405	-226.52
0.1239,0.8761	-224.96
0.0888,0.9112	-230.96
0.0669,0.9331	-218.46
0.0527,0.9473	-226.74
0.0718,0.9282	-223.75
0.0632,0.9368	-223.74
0.1304,0.8696	-230.88
0.0991,0.9009	-228.62
0.0770,0.9230	-218.83
0.0488,0.9512	-220.97
0.0750,0.9250	-223.78
0.0642,0.9358	-221.06
0.1347,0.8653	-229.07
0.1102,0.8898	-232.87
0.0819,0.9181	-228.69
0.0458,0.9542	-220.99
0.0760,0.9240	-223.79
0.0673,0.9327	-223.73
0.1303,0.8697	-228.98
0.1357,0.8643	-230.94
0.0661,0.9339	-229.03
0.0429,0.9571	-224.13
0.0821,0.9179	-228.69
0.0749,0.9251	-228.80
0.1345,0.8655	-225.34
0.1604,0.8396	-229.72
0.0782,0.9218	-223.81
0.0519,0.9481	-218.05
0.0860,0.9140	-228.65
0.0775,0.9225	-226.28
0.1298,0.8702	-234.68
0.1328,0.8672	-229.03
0.0642,0.9358	-218.37
0.0498,0.9502	-218.01
0.0863,0.9137	-226.29
0.0799,0.9201	-228.72
0.1100,0.8900	-226.59
0.1424,0.8576	-229.24
0.0607,0.9393	-218.27
0.0501,0.9499	-226.84
0.0929,0.9071	-224.06
0.0888,0.9112	-223.98
0.1153,0.8847	-222.63
0.1584,0.8416	-231.34
0.0588,0.9412	-226.54
0.0411,0.9589	-221.06
0.1223,0.8777	-228.84
0.0915,0.9085	-226.33
0.1114,0.8886	-224.55
0.1743,0.8257	-231.71
0.0517,0.9483	-220.96
0.0414,0.9586	-221.05
0.1073,0.8927	-224.43
0.0786,0.9214	-226.28
0.1163,0.8837	-234.84
0.1646,0.8354	-231.47
0.0459,0.9541	-227.05
0.0324,0.9676	-221.34
0.1094,0.8906	-232.87
0.0931,0.9069	-221.79
0.1064,0.8936	-230.78
0.1811,0.8189	-231.89
0.0640,0.9360	-231.78
0.0457,0.9543	-224.03
0.0926,0.9074	-224.05
0.0742,0.9258	-223.77
0.1074,0.8926	-226.55
0.1944,0.8056	-230.86
0.0557,0.9443	-235.12
0.0561,0.9439	-232.26
0.0865,0.9135	-223.93
0.0928,0.9072	-224.06
0.1080,0.8920	-224.44
0.2010,0.7990	-235.25
0.0601,0.9399	-223.75
0.0517,0.9483	-223.87
0.0862,0.9138	-223.93
0.0795,0.9205	-223.83
0.1284,0.8716	-244.27
0.2079,0.7921	-236.73
0.0627,0.9373	-218.33
0.0555,0.9445	-226.64
0.0835,0.9165	-223.88
0.1067,0.8933	-226.53
0.1194,0.8806	-228.80
0.2451,0.7549	-234.08
0.0566,0.9434	-220.97
0.0619,0.9381	-223.74
0.0816,0.9184	-223.85
0.1065,0.8935	-224.40
0.1274,0.8726	-228.93
0.2332,0.7668	-238.38
0.0594,0.9406	-221.00
0.0784,0.9216	-223.81
0.0671,0.9329	-223.73
0.0832,0.9168	-228.68
0.1556,0.8444	-227.89
0.2414,0.7586	-236.22
0.0811,0.9189	-223.85
0.0642,0.9358	-221.06
0.0672,0.9328	-226.37
0.0880,0.9120	-221.62
0.1158,0.8842	-224.69
0.2136,0.7864	-232.90
0.0792,0.9208	-223.82
0.0589,0.9411	-220.99
0.0696,0.9304	-223.74
0.0914,0.9086	-228.62
0.1313,0.8687	-230.89
0.2327,0.7673	-233.59
0.0943,0.9057	-224.09
0.0579,0.9421	-220.98
0.0782,0.9218	-223.81
0.0985,0.9015	-219.76
0.1194,0.8806	-228.80
0.2231,0.7769	-236.98
0.1009,0.8991	-228.62
0.0697,0.9303	-226.33
0.0862,0.9138	-223.93
0.1118,0.8882	-230.78
0.1072,0.8928	-222.30
0.1696,0.8304	-230.00
0.0708,0.9292	-223.75
0.0653,0.9347	-221.07
0.0949,0.9051	-221.85
0.0992,0.9008	-226.41
0.0821,0.9179	-226.28
0.1700,0.8300	-230.02
0.0508,0.9492	-220.96
0.0783,0.9217	-218.88
0.0777,0.9223	-223.80
0.1140,0.8860	-232.83
0.0873,0.9127	-221.60
0.1574,0.8426	-229.64
0.0542,0.9458	-220.96
0.0796,0.9204	-228.72
0.0879,0.9121	-226.30
0.1281,0.8719	-230.86
0.0981,0.9019	-226.40
0.1507,0.8493	-232.91
0.0530,0.9470	-218.08
0.0861,0.9139	-221.56
0.1075,0.8925	-222.31
0.1312,0.8688	-229.00
0.1197,0.8803	-222.82
0.1371,0.8629	-229.12
0.0551,0.9449	-223.81
0.1091,0.8909	-228.68
0.0874,0.9126	-228.64
0.1195,0.8805	-230.80
0.0944,0.9056	-233.14
0.1192,0.8808	-226.80
0.0577,0.9423	-220.98
0.1064,0.8936	-220.14
0.0924,0.9076	-228.62
0.1020,0.8980	-222.10
0.1105,0.8895	-228.69
0.1259,0.8741	-225.03
0.0659,0.9341	-218.43
0.1292,0.8708	-225.15
0.0915,0.9085	-224.03
0.0935,0.9065	-228.62
0.0763,0.9237	-228.78
0.1154,0.8846	-228.75
0.0621,0.9379	-223.74
0.1347,0.8653	-229.07
0.0997,0.9003	-224.22
0.0777,0.9223	-221.33
0.0808,0.9192	-226.27
0.1176,0.8824	-226.76
0.0653,0.9347	-223.73
0.1318,0.8682	-232.78
0.1225,0.8775	-226.88
0.0854,0.9146	-223.91
0.0729,0.9271	-221.22
0.0919,0.9081	-224.04
0.0691,0.9309	-234.14
0.1541,0.8459	-229.55
0.0887,0.9113	-223.97
0.0723,0.9277	-223.76
0.0850,0.9150	-228.66
0.0916,0.9084	-226.33
0.0602,0.9398	-223.75
0.1339,0.8661	-225.32
0.0768,0.9232	-218.82
0.0854,0.9146	-221.54
0.0695,0.9305	-221.15
0.0773,0.9227	-226.28
0.0597,0.9403	-221.00
0.1126,0.8874	-220.46
0.0953,0.9047	-224.11
0.0921,0.9079	-228.62
0.0905,0.9095	-230.93
0.0922,0.9078	-228.62
0.0659,0.9341	-223.73
0.1092,0.8908	-232.88
0.0928,0.9072	-228.62
0.1221,0.8779	-228.84
0.1047,0.8953	-226.50
0.1039,0.8961	-224.33
0.0548,0.9452	-218.12
0.1092,0.8908	-228.68
0.0957,0.9043	-221.88
0.1273,0.8727	-228.93
0.1040,0.8960	-224.33
0.0892,0.9108	-230.95
0.0537,0.9463	-223.83
0.1277,0.8723	-228.93
0.1064,0.8936	-226.53
0.1397,0.8603	-232.82
0.0930,0.9070	-226.34
0.0761,0.9239	-228.78
0.0447,0.9553	-221.00
0.1641,0.8359	-231.46
0.1052,0.8948	-224.37
0.1074,0.8926	-224.43
0.1002,0.8998	-226.43
0.0749,0.9251	-231.32
0.0428,0.9572	-221.03
0.1796,0.8204	-231.85
0.0895,0.9105	-223.99
0.1220,0.8780	-234.76
0.0871,0.9129	-226.29
0.0762,0.9238	-218.80
0.0292,0.9708	-221.51
0.1448,0.8552	-236.41
0.0873,0.9127	-230.99
0.1299,0.8701	-223.27
0.0618,0.9382	-221.02
0.0732,0.9268	-223.76
0.0259,0.9741	-221.73
0.1714,0.8286	-230.06
0.0907,0.9093	-226.32
0.1377,0.8623	-229.14
0.0552,0.9448	-223.81
0.0931,0.9069	-237.72
0.0216,0.9784	-218.30
0.1655,0.8345	-229.88
0.0874,0.9126	-226.29
0.1506,0.8494	-229.45
0.0611,0.9389	-218.28
0.0769,0.9231	-223.80
0.0249,0.9751	-221.81
0.2009,0.7991	-232.48
0.0934,0.9066	-228.62
0.1403,0.8597	-225.57
0.0751,0.9249	-223.78
0.0578,0.9422	-226.56
0.0312,0.9688	-224.83
0.1661,0.8339	-226.67
0.0809,0.9191	-226.27
0.1255,0.8745	-234.72
0.0592,0.9408	-223.76
0.0520,0.9480	-223.86
0.0404,0.9596	-224.24
0.1243,0.8757	-232.78
0.0814,0.9186	-221.43
0.1113,0.8887	-228.70
0.0632,0.9368	-218.35
0.0708,0.9292	-226.32
0.0410,0.9590	-217.91
0.1281,0.8719	-221.27
0.0707,0.9293	-221.17
0.1203,0.8797	-234.78
0.0704,0.9296	-221.16
0.0652,0.9348	-226.40
0.0459,0.9541	-227.06
0.1184,0.8816	-228.79
0.0547,0.9453	-232.36
0.1081,0.8919	-226.56
0.0831,0.9169	-219.07
0.0770,0.9230	-231.25
0.0617,0.9383	-223.74
0.0961,0.9039	-224.13
0.0641,0.9359	-221.05
0.1273,0.8727	-223.15
0.0804,0.9196	-218.96
0.0705,0.9295	-226.32
0.0657,0.9343	-221.08
0.0834,0.9166	-221.48
0.0702,0.9298	-221.16
0.1111,0.8889	-226.62
0.0732,0.9268	-226.30
0.0844,0.9156	-228.67
0.0549,0.9451	-220.97
0.0894,0.9106	-221.67
0.0608,0.9392	-221.01
0.0975,0.9025	-219.71
0.0681,0.9319	-221.12
0.0873,0.9127	-219.25
0.0600,0.9400	-229.26
0.1029,0.8971	-228.63
0.0689,0.9311	-223.74
0.0935,0.9065	-221.80
0.0618,0.9382	-223.74
0.0850,0.9150	-228.66
0.0606,0.9394	-226.49
0.1024,0.8976	-226.46
0.0542,0.9458	-223.82
0.0960,0.9040	-221.89
0.0646,0.9354	-221.06
0.0706,0.9294	-231.48
0.0639,0.9361	-218.37
0.0999,0.9001	-222.02
0.0562,0.9438	-223.79
0.0881,0.9119	-228.64
0.0534,0.9466	-220.96
0.0803,0.9197	-231.15
0.0542,0.9458	-220.96
0.1076,0.8924	-232.90
0.0625,0.9375	-218.33
0.0844,0.9156	-221.51
0.0501,0.9499	-226.84
0.0872,0.9128	-221.60
0.0606,0.9394	-221.01
0.0979,0.9021	-226.40
0.0548,0.9452	-223.81
0.0749,0.9251	-218.75
0.0547,0.9453	-223.81
0.1059,0.8941	-228.65
0.0612,0.9388	-218.28
0.1243,0.8757	-226.92
0.0642,0.9358	-223.74
0.0772,0.9228	-226.28
0.0713,0.9287	-223.75
0.1057,0.8943	-220.11
0.0693,0.9307	-221.14
0.1364,0.8636	-234.65
0.0892,0.9108	-228.63
0.0658,0.9342	-221.08
0.0738,0.9262	-228.83
0.0978,0.9022	-221.95
0.0664,0.9336	-221.09
0.1649,0.8351	-226.61
0.0938,0.9062	-235.42
0.0795,0.9205	-221.38
0.0671,0.9329	-223.73
0.0998,0.9002	-228.62
0.0521,0.9479	-220.96
0.1391,0.8609	-232.81
0.1189,0.8811	-224.78
0.0867,0.9133	-238.07
0.0691,0.9309	-221.14
0.0857,0.9143	-233.39
0.0506,0.9494	-220.96
0.1203,0.8797	-228.81
0.1029,0.8971	-222.14
0.0892,0.9108	-233.28
0.0890,0.9110	-230.96
0.0844,0.9156	-228.66
0.0518,0.9482	-220.96
0.1264,0.8736	-223.11
0.1005,0.8995	-228.62
0.0767,0.9233	-218.82
0.0874,0.9126	-226.29
0.0879,0.9121	-223.96
0.0615,0.9385	-223.75
0.1286,0.8714	-225.12
0.1152,0.8848	-222.63
0.0803,0.9197	-218.96
0.0715,0.9285	-223.75
0.0732,0.9268	-223.76
0.0678,0.9322	-223.74
0.1136,0.8864	-226.67
0.0980,0.9020	-224.18
0.0803,0.9197	-223.84
0.0720,0.9280	-223.75
0.0800,0.9200	-223.83
0.0692,0.9308	-221.14
0.1074,0.8926	-226.55
0.0949,0.9051	-224.10
0.0778,0.9222	-223.80
0.0797,0.9203	-226.27
0.0747,0.9253	-223.77
0.0723,0.9277	-221.20
0.1189,0.8811	-230.79
0.0939,0.9061	-226.35
0.0795,0.9205	-223.83
0.0950,0.9050	-228.61
0.0649,0.9351	-223.73
0.0702,0.9298	-221.16
0.1072,0.8928	-224.42
0.1030,0.8970	-226.47
0.0948,0.9052	-221.84
0.0662,0.9338	-223.73
0.0754,0.9246	-228.79
0.0679,0.9321	-221.12
0.1082,0.8918	-222.34
0.0940,0.9060	-230.88
0.1006,0.8994	-226.43
0.0642,0.9358	-223.74
0.0664,0.9336	-221.09
0.0898,0.9102	-223.99
0.1092,0.8908	-224.48
0.0889,0.9111	-233.29
0.0720,0.9280	-228.87
0.0736,0.9264	-218.70
0.0570,0.9430	-226.59
0.1106,0.8894	-226.61
0.0989,0.9011	-224.20
0.0929,0.9071	-233.18
0.0706,0.9294	-223.75
0.0716,0.9284	-218.63
0.0475,0.9525	-223.97
0.1022,0.8978	-219.94
0.1100,0.8900	-226.59
0.0940,0.9060	-233.15
0.0826,0.9174	-228.68
0.0647,0.9353	-218.39
0.0532,0.9468	-223.84
0.1051,0.8949	-230.79
0.1477,0.8523	-234.63
0.0914,0.9086	-224.03
0.0826,0.9174	-228.68
0.0540,0.9460	-223.82
0.0498,0.9502	-226.86
0.0925,0.9075	-219.49
0.1535,0.8465	-227.82
0.1176,0.8824	-226.76
0.0860,0.9140	-226.29
0.0473,0.9527	-226.98
0.0463,0.9537	-217.96
0.1099,0.8901	-228.69
0.1310,0.8690	-229.00
0.1181,0.8819	-230.79
0.0784,0.9216	-228.74
0.0543,0.9457	-220.96
0.0498,0.9502	-218.01
0.1004,0.8996	-219.85
0.1237,0.8763	-222.99
0.1195,0.8805	-222.81
0.0854,0.9146	-233.40
0.0606,0.9394	-221.01
0.0535,0.9465	-220.96
0.0997,0.9003	-224.22
0.1152,0.8848	-226.70
0.1278,0.8722	-227.02
0.0802,0.9198	-228.71
0.0585,0.9415	-220.99
0.0617,0.9383	-218.30
0.1122,0.8878	-236.98
0.1332,0.8668	-227.17
0.1328,0.8672	-227.16
0.1034,0.8966	-224.32
0.0482,0.9518	-220.97
0.0559,0.9441	-218.14
0.1341,0.8659	-229.06
0.1209,0.8791	-224.85
0.1357,0.8643	-223.54
0.0960,0.9040	-224.13
0.0459,0.9541	-220.99
0.0541,0.9459	-220.96
0.1188,0.8812	-230.79
0.0974,0.9026	-224.16
0.1463,0.8537	-231.10
0.1108,0.8892	-226.61
0.0494,0.9506	-220.96
0.0458,0.9542	-220.99
0.1587,0.8413	-231.34
0.0939,0.9061	-233.15
0.1597,0.8403	-233.02
0.0985,0.9015	-224.19
0.0608,0.9392	-229.23
0.0497,0.9503	-229.82
0.1893,0.8107	-233.58
0.1111,0.8889	-228.70
0.1430,0.8570	-227.47
0.0935,0.9065	-233.16
0.0513,0.9487	-226.79
0.0549,0.9451	-218.12
0.2147,0.7853	-234.24
0.1124,0.8876	-222.51
0.1518,0.8482	-232.92
0.0787,0.9213	-223.82
0.0604,0.9396	-218.26
0.0591,0.9409	-220.99
0.1842,0.8158	-231.98
0.1158,0.8842	-230.78
0.1582,0.8418	-229.66
0.0765,0.9235	-221.30
0.0667,0.9333	-223.73
0.0673,0.9327	-223.73
0.1856,0.8144	-234.98
0.1286,0.8714	-234.69
0.1600,0.8400	-233.03
0.0843,0.9157	-223.90
0.0669,0.9331	-226.37
0.0594,0.9406	-221.00
0.1813,0.8187	-236.42
0.1339,0.8661	-229.05
0.1655,0.8345	-228.26
0.0651,0.9349	-221.07
0.0882,0.9118	-221.63
0.0559,0.9441	-220.97
0.1650,0.8350	-228.24
0.1348,0.8652	-225.36
0.1360,0.8640	-232.80
0.0603,0.9397	-229.25
0.0986,0.9014	-226.40
0.0546,0.9454	-226.67
0.1784,0.8216	-233.35
0.1141,0.8859	-228.73
0.1560,0.8440	-232.97
0.0513,0.9487	-226.79
0.1098,0.8902	-228.68
0.0533,0.9467	-223.84
0.1672,0.8328	-231.53
0.1357,0.8643	-236.50
0.1395,0.8605	-227.36
0.0556,0.9444	-223.80
0.0980,0.9020	-226.40
0.0557,0.9443	-220.97
0.1758,0.8242	-230.20
0.1472,0.8528	-231.12
0.1136,0.8864	-228.72
0.0632,0.9368	-223.74
0.0935,0.9065	-224.07
0.0618,0.9382	-226.46
0.1996,0.8004	-236.61
0.1641,0.8359	-228.20
0.1204,0.8796	-222.85
0.0598,0.9402	-223.76
0.0835,0.9165	-221.49
0.0519,0.9481	-223.86
0.1694,0.8306	-231.59
0.1749,0.8251	-228.62
0.1110,0.8890	-226.62
0.0625,0.9375	-223.74
0.0679,0.9321	-218.50
0.0474,0.9526	-220.97
0.1356,0.8644	-234.65
0.1464,0.8536	-229.34
0.1196,0.8804	-224.81
0.0575,0.9425	-218.18
0.0718,0.9282	-226.31
0.0524,0.9476	-223.86
0.1800,0.8200	-231.86
0.1375,0.8625	-230.97
0.1299,0.8701	-227.07
0.0529,0.9471	-226.73
0.0862,0.9138	-221.57
0.0485,0.9515	-223.95
0.1681,0.8319	-233.15
0.1260,0.8740	-226.97
0.1285,0.8715	-225.12
0.0492,0.9508	-223.93
0.0856,0.9144	-226.29
0.0490,0.9510	-223.93
0.1449,0.8551	-234.63
0.1070,0.8930	-224.42
0.1284,0.8716	-230.86
0.0674,0.9326	-226.36
0.0876,0.9124	-226.30
0.0418,0.9582	-221.05
0.1428,0.8572	-227.46
0.0865,0.9135	-221.58
0.1165,0.8835	-224.71
0.0665,0.9335	-221.09
0.0895,0.9105	-226.31
0.0411,0.9589	-227.36
0.1753,0.8247	-230.19
0.0731,0.9269	-223.76
0.1322,0.8678	-230.90
0.0668,0.9332	-221.10
0.1076,0.8924	-232.90
0.0366,0.9634	-221.17
0.1535,0.8465	-229.53
0.0905,0.9095	-230.93
0.1526,0.8474	-227.79
0.0695,0.9305	-221.15
0.0934,0.9066	-226.34
0.0423,0.9577	-221.04
0.1341,0.8659	-229.06
0.0894,0.9106	-228.63
0.1430,0.8570	-234.63
0.0707,0.9293	-226.32
0.0954,0.9046	-228.61
0.0410,0.9590	-217.91
0.1459,0.8541	-225.79
0.0750,0.9250	-231.31
0.1249,0.8751	-224.99
0.0635,0.9365	-226.43
0.1126,0.8874	-224.58
0.0382,0.9618	-221.13
0.1914,0.8086	-233.63
0.0892,0.9108	-230.95
0.0965,0.9035	-230.85
0.0698,0.9302	-223.74
0.1089,0.8911	-222.37
0.0476,0.9524	-223.97
0.2001,0.7999	-236.61
0.0971,0.9029	-230.85
0.0971,0.9029	-230.84
0.0720,0.9280	-228.87
0.0823,0.9177	-219.04
0.0419,0.9581	-217.91
0.2101,0.7899	-231.46
0.0783,0.9217	-226.28
0.1154,0.8846	-230.78
0.0932,0.9068	-228.62
0.0776,0.9224	-221.33
0.0392,0.9608	-224.30
0.2023,0.7977	-233.90
0.1004,0.8996	-222.04
0.1104,0.8896	-226.60
0.0923,0.9077	-224.05
0.0897,0.9103	-230.95
0.0390,0.9610	-221.10
0.2348,0.7652	-236.04
0.0923,0.9077	-221.76
0.1010,0.8990	-224.25
0.0978,0.9022	-230.84
0.0957,0.9043	-224.12
0.0407,0.9593	-221.07
0.2099,0.7901	-232.78
0.0915,0.9085	-221.73
0.1263,0.8737	-230.84
0.1097,0.8903	-228.68
0.0991,0.9009	-228.62
0.0460,0.9540	-227.05
0.2044,0.7956	-233.96
0.0868,0.9132	-228.65
0.1173,0.8827	-226.75
0.0982,0.9018	-233.05
0.1098,0.8902	-222.41
0.0525,0.9475	-223.85
0.2029,0.7971	-229.81
0.0765,0.9235	-228.77
0.0996,0.9004	-230.82
0.1266,0.8734	-228.91
0.0981,0.9019	-226.40
0.0602,0.9398	-221.01
0.2062,0.7938	-234.00
0.0947,0.9053	-224.10
0.1029,0.8971	-222.14
0.1115,0.8885	-226.63
0.1114,0.8886	-230.78
0.0682,0.9318	-228.97
0.2170,0.7830	-235.59
0.0837,0.9163	-223.89
0.0864,0.9136	-228.65
0.1338,0.8662	-230.92
0.1377,0.8623	-232.81
0.0752,0.9248	-226.29
0.2081,0.7919	-234.06
0.0791,0.9209	-223.82
0.0818,0.9182	-221.44
0.1559,0.8441	-231.28
0.1314,0.8686	-227.12
0.0755,0.9245	-236.30
0.2211,0.7789	-235.69
0.0902,0.9098	-230.94
0.0853,0.9147	-221.54
0.1504,0.8496	-229.45
0.1414,0.8586	-222.01
0.0764,0.9236	-226.28
0.2450,0.7550	-237.45
0.0909,0.9091	-226.32
0.0814,0.9186	-223.85
0.1319,0.8681	-229.02
0.1154,0.8846	-224.67
0.0769,0.9231	-221.31
0.3128,0.6872	-238.64
0.0833,0.9167	-221.48
0.0842,0.9158	-223.89
0.1293,0.8707	-227.06
0.0984,0.9016	-226.40
0.0659,0.9341	-226.38
0.2641,0.7359	-238.95
0.0810,0.9190	-223.85
0.0698,0.9302	-223.74
0.1583,0.8417	-236.35
0.0993,0.9007	-219.80
0.0641,0.9359	-237.14
0.2359,0.7641	-238.42
0.0744,0.9256	-218.73
0.0746,0.9254	-223.77
0.1643,0.8357	-228.21
0.1058,0.8942	-220.12
0.0809,0.9191	-221.41
0.2006,0.7994	-236.62
0.0663,0.9337	-223.73
0.0729,0.9271	-218.68
0.1655,0.8345	-229.88
0.1073,0.8927	-226.54
0.0741,0.9259	-223.77
0.1410,0.8590	-227.40
0.0540,0.9460	-220.96
0.0604,0.9396	-221.01
0.1988,0.8012	-231.02
0.1064,0.8936	-228.66
0.0651,0.9349	-226.40
0.1243,0.8757	-228.87
0.0581,0.9419	-229.34
0.0721,0.9279	-221.20
0.1522,0.8478	-231.21
0.1143,0.8857	-230.78
0.0655,0.9345	-226.39
0.1392,0.8608	-232.81
0.0771,0.9229	-226.28
0.0677,0.9323	-226.36
0.1388,0.8612	-227.33
0.1169,0.8831	-222.70
0.0640,0.9360	-223.74
0.1690,0.8310	-233.17
0.0723,0.9277	-223.76
0.0687,0.9313	-221.13
0.1530,0.8470	-229.51
0.1108,0.8892	-226.61
0.0568,0.9432	-220.98
0.1807,0.8193	-231.88
0.0942,0.9058	-228.62
0.0786,0.9214	-218.89
0.1339,0.8661	-230.92
0.1382,0.8618	-225.49
0.0704,0.9296	-226.33
0.1676,0.8324	-233.15
0.0995,0.9005	-228.62
0.0616,0.9384	-223.74
0.1742,0.8258	-230.15
0.1296,0.8704	-227.07
0.0929,0.9071	-224.06
0.1760,0.8240	-231.75
0.0862,0.9138	-233.37
0.0577,0.9423	-220.98
0.1975,0.8025	-237.98
0.1013,0.8987	-226.44
0.0944,0.9056	-228.61
0.1483,0.8517	-229.39
0.0884,0.9116	-226.30
0.0459,0.9541	-217.95
0.2060,0.7940	-234.00
0.1002,0.8998	-222.04
0.0958,0.9042	-226.37
0.1520,0.8480	-231.21
0.0860,0.9140	-226.29
0.0495,0.9505	-220.96
0.2030,0.7970	-236.65
0.0816,0.9184	-226.27
0.0876,0.9124	-228.64
0.1271,0.8729	-223.14
0.0993,0.9007	-224.21
0.0523,0.9477	-220.96
0.2065,0.7935	-235.36
0.1023,0.8977	-228.63
0.0826,0.9174	-226.28
0.1239,0.8761	-230.82
0.0827,0.9173	-223.87
0.0576,0.9424	-226.57
0.2248,0.7752	-238.25
0.1115,0.8885	-226.63
0.0929,0.9071	-228.62
0.1275,0.8725	-234.70
0.0866,0.9134	-231.00
0.0488,0.9512	-226.90
0.1666,0.8334	-229.91
0.1046,0.8954	-230.79
0.0967,0.9033	-235.32
0.1385,0.8615	-230.98
0.0958,0.9042	-224.13
0.0628,0.9372	-229.15
0.1524,0.8476	-239.79
0.1111,0.8889	-228.70
0.0903,0.9097	-224.00
0.1528,0.8472	-231.22
0.0999,0.9001	-230.82
0.0637,0.9363	-229.11
0.1220,0.8780	-234.76
0.1183,0.8817	-224.77
0.0639,0.9361	-223.74
0.1134,0.8866	-232.83
0.1070,0.8930	-230.78
0.0455,0.9545	-220.99
0.1277,0.8723	-227.01
0.1154,0.8846	-222.64
0.0563,0.9437	-218.15
0.1087,0.8913	-228.67
0.1114,0.8886	-228.70
0.0488,0.9512	-218.00
0.1534,0.8466	-232.94
0.1480,0.8520	-232.88
0.0564,0.9436	-223.79
0.1323,0.8677	-223.38
0.0824,0.9176	-223.87
0.0444,0.9556	-230.22
0.1532,0.8468	-229.52
0.1669,0.8331	-231.53
0.0505,0.9495	-223.90
0.1164,0.8836	-228.76
0.1000,0.9000	-228.62
0.0376,0.9624	-224.39
0.2025,0.7975	-231.16
0.1504,0.8496	-231.18
0.0538,0.9462	-218.10
0.1217,0.8783	-230.81
0.1088,0.8912	-226.57
0.0367,0.9633	-217.90
0.1832,0.8168	-234.94
0.1367,0.8633	-225.43
0.0495,0.9505	-223.92
0.1010,0.8990	-233.00
0.1113,0.8887	-228.70
0.0420,0.9580	-224.17
0.1650,0.8350	-231.48
0.1328,0.8672	-225.28
0.0632,0.9368	-218.35
0.1092,0.8908	-228.68
0.1032,0.8968	-232.96
0.0380,0.9620	-217.90
0.1478,0.8522	-239.89
0.1249,0.8751	-224.99
0.0678,0.9322	-221.11
0.0921,0.9079	-221.75
0.1085,0.8915	-228.67
0.0450,0.9550	-221.00
0.1318,0.8682	-230.90
0.1682,0.8318	-231.56
0.0602,0.9398	-226.50
0.0697,0.9303	-226.33
0.1334,0.8666	-236.53
0.0448,0.9552	-227.12
0.1506,0.8494	-231.18
0.2181,0.7819	-234.34
0.0621,0.9379	-226.46
0.0664,0.9336	-226.38
0.1467,0.8533	-227.59
0.0417,0.9583	-217.91
0.1552,0.8448	-226.19
0.2175,0.7825	-242.00
0.0727,0.9273	-226.30
0.0712,0.9288	-221.18
0.1519,0.8481	-231.20
0.0285,0.9715	-218.02
0.2066,0.7934	-232.67
0.2344,0.7656	-237.21
0.0716,0.9284	-221.19
0.0646,0.9354	-223.73
0.1181,0.8819	-226.77
0.0327,0.9673	-221.32
0.1646,0.8354	-228.22
0.1946,0.8054	-233.71
0.0877,0.9123	-221.61
0.0599,0.9401	-221.00
0.1096,0.8904	-220.30
0.0279,0.9721	-218.04
0.1244,0.8756	-230.83
0.2450,0.7550	-236.32
0.1223,0.8777	-226.87
0.0506,0.9494	-223.89
0.1200,0.8800	-226.82
0.0276,0.9724	-221.61
0.1389,0.8611	-229.16
0.2094,0.7906	-234.09
0.1111,0.8889	-232.86
0.0548,0.9452	-226.66
0.0930,0.9070	-228.62
0.0220,0.9780	-222.08
0.1492,0.8508	-229.41
0.1479,0.8521	-234.63
0.0938,0.9062	-233.15
0.0603,0.9397	-231.99
0.0827,0.9173	-221.46
0.0209,0.9791	-226.04
0.1739,0.8261	-230.14
0.1403,0.8597	-229.19
0.0792,0.9208	-218.91
0.0477,0.9523	-220.97
0.1223,0.8777	-228.84
0.0180,0.9820	-222.57
0.1641,0.8359	-233.09
0.1533,0.8467	-229.52
0.0694,0.9306	-231.53
0.0495,0.9505	-223.92
0.1211,0.8789	-224.86
0.0221,0.9779	-222.06
0.1563,0.8437	-231.29
0.1718,0.8282	-230.07
0.0735,0.9265	-233.90
0.0537,0.9463	-226.70
0.1187,0.8813	-226.78
0.0170,0.9830	-218.67
0.1283,0.8717	-228.95
0.1825,0.8175	-234.93
0.0585,0.9415	-226.55
0.0481,0.9519	-220.97
0.1163,0.8837	-224.70
0.0159,0.9841	-222.90
0.1080,0.8920	-226.56
0.1929,0.8071	-229.37
0.0429,0.9571	-224.13
0.0548,0.9452	-223.81
0.0957,0.9043	-221.88
0.0165,0.9835	-218.71
0.1070,0.8930	-226.54
0.2331,0.7669	-234.80
0.0441,0.9559	-217.93
0.0595,0.9405	-223.76
0.0924,0.9076	-228.62
0.0190,0.9810	-218.49
0.1075,0.8925	-224.43
0.2351,0.7649	-238.40
0.0556,0.9444	-226.63
0.0463,0.9537	-217.96
0.0783,0.9217	-223.81
0.0161,0.9839	-222.87
0.0962,0.9038	-228.61
0.2259,0.7741	-239.50
0.0538,0.9462	-220.96
0.0562,0.9438	-220.97
0.0710,0.9290	-223.75
0.0209,0.9791	-218.35
0.0893,0.9107	-235.59
0.1564,0.8436	-231.29
0.0641,0.9359	-231.78
0.0458,0.9542	-217.95
0.0791,0.9209	-226.28
0.0245,0.9755	-218.16
0.0856,0.9144	-226.29
0.1414,0.8586	-231.03
0.0656,0.9344	-221.08
0.0446,0.9554	-227.13
0.0914,0.9086	-224.03
0.0254,0.9746	-218.12
0.0896,0.9104	-230.95
0.1488,0.8512	-229.40
0.0785,0.9215	-221.35
0.0349,0.9651	-221.23
0.0972,0.9028	-233.07
0.0214,0.9786	-222.14
0.0809,0.9191	-221.41
0.1488,0.8512	-227.66
0.1065,0.8935	-224.40
0.0406,0.9594	-217.91
0.0879,0.9121	-226.30
0.0224,0.9776	-222.04
0.0936,0.9064	-230.89
0.1803,0.8197	-231.87
0.0928,0.9072	-226.34
0.0417,0.9583	-221.05
0.0834,0.9166	-233.47
0.0281,0.9719	-221.57
0.1035,0.8965	-222.16
0.1550,0.8450	-227.87
0.0861,0.9139	-226.29
0.0354,0.9646	-231.13
0.0963,0.9037	-224.14
0.0341,0.9659	-221.26
0.1333,0.8667	-225.30
0.1690,0.8310	-231.58
0.0938,0.9062	-224.08
0.0350,0.9650	-221.23
0.1011,0.8989	-228.63
0.0321,0.9679	-224.75
0.1446,0.8554	-232.85
0.1728,0.8272	-226.97
0.0950,0.9050	-226.36
0.0451,0.9549	-217.94
0.0903,0.9097	-230.94
0.0385,0.9615	-227.56
0.1382,0.8618	-230.98
0.1439,0.8561	-232.85
0.0900,0.9100	-226.31
0.0465,0.9535	-220.98
0.0912,0.9088	-226.32
0.0329,0.9671	-217.93
0.1139,0.8861	-232.83
0.1229,0.8771	-226.89
0.0833,0.9167	-223.88
0.0465,0.9535	-220.98
0.0796,0.9204	-223.83
0.0318,0.9682	-221.36
0.1171,0.8829	-226.75
0.1417,0.8583	-227.43
0.0768,0.9232	-228.77
0.0455,0.9545	-217.95
0.0785,0.9215	-223.81
0.0274,0.9726	-225.19
0.1248,0.8752	-224.99
0.1539,0.8461	-231.24
0.0760,0.9240	-218.79
0.0441,0.9559	-224.08
0.0722,0.9278	-223.75
0.0335,0.9665	-217.93
0.1425,0.8575	-225.66
0.1258,0.8742	-228.90
0.0879,0.9121	-230.98
0.0389,0.9611	-230.73
0.0628,0.9372	-221.04
0.0359,0.9641	-217.91
0.1523,0.8477	-229.49
0.1246,0.8754	-221.08
0.0745,0.9255	-228.81
0.0417,0.9583	-217.91
0.0815,0.9185	-228.70
0.0382,0.9618	-217.90
0.1226,0.8774	-228.85
0.1194,0.8806	-224.80
0.0707,0.9293	-221.17
0.0393,0.9607	-221.10
0.0844,0.9156	-231.05
0.0384,0.9616	-221.12
0.1185,0.8815	-228.79
0.1261,0.8739	-226.97
0.0731,0.9269	-218.68
0.0403,0.9597	-221.07
0.0925,0.9075	-224.05
0.0371,0.9629	-217.90
0.1118,0.8882	-228.70
0.1126,0.8874	-224.58
0.0750,0.9250	-228.80
0.0473,0.9527	-220.98
0.0840,0.9160	-228.67
0.0447,0.9553	-217.94
0.1456,0.8544	-236.40
0.1069,0.8931	-228.66
0.0730,0.9270	-223.76
0.0505,0.9495	-229.76
0.0851,0.9149	-228.66
0.0527,0.9473	-218.07
0.1244,0.8756	-230.83
0.0929,0.9071	-230.90
0.0719,0.9281	-221.19
0.0571,0.9429	-220.98
0.0853,0.9147	-226.28
0.0552,0.9448	-220.97
0.1246,0.8754	-228.88
0.0923,0.9077	-233.19
0.0742,0.9258	-231.34
0.0620,0.9380	-218.31
0.0824,0.9176	-223.87
0.0573,0.9427	-220.98
0.1259,0.8741	-230.84
0.0978,0.9022	-228.62
0.0678,0.9322	-221.11
0.0690,0.9310	-226.34
0.0834,0.9166	-221.48
0.0428,0.9572	-221.03
0.1489,0.8511	-227.66
0.1013,0.8987	-228.63
0.0634,0.9366	-221.04
0.0716,0.9284	-228.88
0.0748,0.9252	-223.77
0.0353,0.9647	-217.91
0.1946,0.8054	-228.02
0.1030,0.8970	-222.14
0.0564,0.9436	-220.97
0.0848,0.9152	-221.53
0.0775,0.9225	-228.76
0.0333,0.9667	-221.30
0.2048,0.7952	-232.61
0.1119,0.8881	-230.78
0.0499,0.9501	-218.02
0.0822,0.9178	-221.45
0.0674,0.9326	-218.48
0.0358,0.9642	-217.91
0.2098,0.7902	-234.10
0.1045,0.8955	-224.35
0.0539,0.9461	-218.10
0.0923,0.9077	-233.19
0.0623,0.9377	-223.74
0.0295,0.9705	-217.99
0.1936,0.8064	-235.11
0.1112,0.8888	-222.46
0.0503,0.9497	-218.02
0.0928,0.9072	-224.06
0.0552,0.9448	-226.65
0.0325,0.9675	-217.94
0.1789,0.8211	-233.36
0.1239,0.8761	-228.87
0.0550,0.9450	-223.81
0.0942,0.9058	-224.09
0.0549,0.9451	-220.97
0.0331,0.9669	-228.05
0.2209,0.7791	-235.68
0.1457,0.8543	-225.79
0.0597,0.9403	-218.24
0.1191,0.8809	-228.80
0.0614,0.9386	-223.75
0.0360,0.9640	-224.48
0.1867,0.8133	-233.52
0.1272,0.8728	-227.00
0.0674,0.9326	-226.36
0.1105,0.8895	-228.69
0.0703,0.9297	-221.16
0.0388,0.9612	-224.32
0.1645,0.8355	-224.97
0.1477,0.8523	-231.13
0.0647,0.9353	-221.06
0.0784,0.9216	-223.81
0.0705,0.9295	-226.32
0.0246,0.9754	-221.83
0.1484,0.8516	-229.39
0.1589,0.8411	-233.01
0.0731,0.9269	-223.76
0.0720,0.9280	-221.20
0.0801,0.9199	-223.83
0.0285,0.9715	-221.55
0.1499,0.8501	-238.11
0.1476,0.8524	-229.37
0.0753,0.9247	-228.80
0.0574,0.9426	-218.18
0.0833,0.9167	-226.28
0.0310,0.9690	-221.40
0.1467,0.8533	-225.83
0.1393,0.8607	-230.99
0.0854,0.9146	-233.40
0.0603,0.9397	-229.24
0.0606,0.9394	-223.75
0.0295,0.9705	-224.98
0.1324,0.8676	-229.03
0.1350,0.8650	-232.79
0.0797,0.9203	-228.72
0.0641,0.9359	-223.74
0.0482,0.9518	-223.95
0.0312,0.9688	-228.27
0.1378,0.8622	-225.47
0.1400,0.8600	-229.19
0.0831,0.9169	-219.07
0.0642,0.9358	-226.42
0.0452,0.9548	-220.99
0.0335,0.9665	-217.93
0.1701,0.8299	-230.02
0.1336,0.8664	-230.92
0.0593,0.9407	-218.23
0.0718,0.9282	-228.87
0.0454,0.9546	-230.13
0.0302,0.9698	-217.98
0.1586,0.8414	-233.01
0.1495,0.8505	-227.68
0.0473,0.9527	-226.98
0.0731,0.9269	-223.76
0.0437,0.9563	-227.18
0.0353,0.9647	-224.52
0.1552,0.8448	-234.66
0.1182,0.8818	-230.79
0.0401,0.9599	-217.90
0.0747,0.9253	-228.81
0.0416,0.9584	-221.05
0.0262,0.9738	-221.70
0.1573,0.8427	-227.96
0.1256,0.8744	-226.96
0.0445,0.9555	-227.13
0.0817,0.9183	-231.12
0.0450,0.9550	-217.94
0.0326,0.9674	-224.72
0.1704,0.8296	-228.45
0.1007,0.8993	-224.24
0.0590,0.9410	-223.76
0.0644,0.9356	-229.09
0.0375,0.9625	-221.15
0.0342,0.9658	-221.26
0.1971,0.8029	-233.77
0.0973,0.9027	-228.62
0.0733,0.9267	-228.84
0.0765,0.9235	-223.79
0.0323,0.9677	-221.34
0.0341,0.9659	-221.26
0.2181,0.7819	-231.78
0.0865,0.9135	-223.93
0.0692,0.9308	-231.54
0.0642,0.9358	-221.06
0.0291,0.9709	-218.00
0.0420,0.9580	-224.17
0.1983,0.8017	-236.59
0.0719,0.9281	-226.31
0.0748,0.9252	-228.81
0.0491,0.9509	-218.00
0.0290,0.9710	-225.03
0.0346,0.9654	-217.92
0.2023,0.7977	-235.27
0.0683,0.9317	-218.51
0.0885,0.9115	-228.63
0.0470,0.9530	-227.00
0.0322,0.9678	-224.75
0.0332,0.9668	-221.30
0.2226,0.7774	-233.22
0.0693,0.9307	-228.94
0.0721,0.9279	-226.31
0.0514,0.9486	-220.96
0.0389,0.9611	-221.11
0.0360,0.9640	-217.91
0.1631,0.8369	-224.90
0.0602,0.9398	-226.50
0.0968,0.9032	-228.61
0.0721,0.9279	-226.31
0.0391,0.9609	-221.10
0.0430,0.9570	-227.23
0.1650,0.8350	-234.73
0.0720,0.9280	-223.75
0.0823,0.9177	-231.10
0.0795,0.9205	-223.83
0.0474,0.9526	-217.97
0.0385,0.9615	-224.34
0.1607,0.8393	-229.73
0.0730,0.9270	-231.38
0.0957,0.9043	-226.37
0.0623,0.9377	-226.45
0.0501,0.9499	-220.96
0.0366,0.9634	-224.44
0.1619,0.8381	-228.12
0.0699,0.9301	-221.15
0.0770,0.9230	-223.80
0.0534,0.9466	-218.09
0.0600,0.9400	-226.51
0.0367,0.9633	-224.44
0.1504,0.8496	-234.64
0.0672,0.9328	-223.73
0.0850,0.9150	-228.66
0.0460,0.9540	-224.02
0.0492,0.9508	-223.93
0.0309,0.9691	-221.41
0.1366,0.8634	-225.42
0.0661,0.9339	-223.73
0.0729,0.9271	-221.22
0.0446,0.9554	-221.00
0.0537,0.9463	-223.83
0.0394,0.9606	-217.90
0.1178,0.8822	-228.78
0.0765,0.9235	-223.79
0.0880,0.9120	-223.96
0.0454,0.9546	-220.99
0.0470,0.9530	-220.98
0.0402,0.9598	-221.08
0.1231,0.8769	-230.82
0.0984,0.9016	-221.97
0.0847,0.9153	-228.66
0.0483,0.9517	-217.99
0.0383,0.9617	-227.57
0.0428,0.9572	-224.14
0.1586,0.8414	-229.67
0.0885,0.9115	-228.63
0.0670,0.9330	-223.73
0.0505,0.9495	-220.96
0.0519,0.9481	-220.96
0.0464,0.9536	-227.03
0.1708,0.8292	-230.04
0.0794,0.9206	-228.73
0.0663,0.9337	-218.44
0.0361,0.9639	-224.48
0.0601,0.9399	-221.00
0.0408,0.9592	-221.06
0.1787,0.8213	-233.35
0.0930,0.9070	-226.34
0.0751,0.9249	-218.75
0.0403,0.9597	-227.42
0.0555,0.9445	-220.97
0.0398,0.9602	-217.90
0.1899,0.8101	-235.05
0.0871,0.9129	-228.64
0.0741,0.9259	-221.24
0.0364,0.9636	-217.90
0.0576,0.9424	-223.78
0.0441,0.9559	-221.01
0.1400,0.8600	-231.00
0.1021,0.8979	-222.11
0.0748,0.9252	-221.26
0.0327,0.9673	-224.71
0.0546,0.9454	-218.11
0.0498,0.9502	-220.96
0.1604,0.8396	-229.72
0.1030,0.8970	-228.63
0.0768,0.9232	-226.28
0.0295,0.9705	-221.49
0.0580,0.9420	-220.98
0.0492,0.9508	-232.81
0.1436,0.8564	-234.63
0.0836,0.9164	-221.49
0.0665,0.9335	-223.73
0.0321,0.9679	-217.94
0.0492,0.9508	-220.96
0.0473,0.9527	-217.97
0.1362,0.8638	-234.65
0.0744,0.9256	-223.77
0.0820,0.9180	-226.28
0.0326,0.9674	-221.33
0.0559,0.9441	-223.80
0.0348,0.9652	-221.24
0.1382,0.8618	-232.81
0.0856,0.9144	-223.92
0.0810,0.9190	-223.85
0.0261,0.9739	-225.34
0.0597,0.9403	-218.24
0.0317,0.9683	-224.79
0.1289,0.8711	-227.04
0.0839,0.9161	-221.50
0.0768,0.9232	-226.28
0.0280,0.9720	-221.58
0.0635,0.9365	-223.74
0.0402,0.9598	-221.08
0.1387,0.8613	-227.33
0.0661,0.9339	-231.68
0.0960,0.9040	-226.37
0.0281,0.9719	-221.57
0.0730,0.9270	-221.22
0.0432,0.9568	-221.02
0.1109,0.8891	-224.53
0.0634,0.9366	-218.35
0.0884,0.9116	-228.63
0.0327,0.9673	-224.71
0.0885,0.9115	-223.97
0.0490,0.9510	-218.00
0.1123,0.8877	-234.91
0.0561,0.9439	-226.62
0.0862,0.9138	-226.29
0.0316,0.9684	-217.95
0.0944,0.9056	-226.35
0.0501,0.9499	-223.90
0.0914,0.9086	-224.03
0.0564,0.9436	-220.97
0.0780,0.9220	-218.87
0.0328,0.9672	-221.32
0.1021,0.8979	-228.63
0.0495,0.9505	-218.01
0.1026,0.8974	-224.30
0.0695,0.9305	-223.74
0.0814,0.9186	-228.70
0.0271,0.9729	-221.64
0.0993,0.9007	-228.62
0.0504,0.9496	-220.96
0.0969,0.9031	-226.38
0.0946,0.9054	-228.61
0.0655,0.9345	-223.73
0.0344,0.9656	-224.59
0.1053,0.8947	-224.37
0.0431,0.9569	-221.02
0.0990,0.9010	-226.41
0.1015,0.8985	-230.81
0.0609,0.9391	-234.69
0.0347,0.9653	-221.24
0.0889,0.9111	-223.98
0.0431,0.9569	-227.22
0.0891,0.9109	-223.98
0.0941,0.9059	-228.62
0.0688,0.9312	-223.74
0.0363,0.9637	-221.18
0.0895,0.9105	-228.63
0.0455,0.9545	-220.99
0.1023,0.8977	-226.46
0.0945,0.9055	-221.84
0.0700,0.9300	-226.33
0.0348,0.9652	-221.24
0.1019,0.8981	-226.45
0.0416,0.9584	-221.05
0.1043,0.8957	-232.94
0.0938,0.9062	-228.62
0.0677,0.9323	-221.11
0.0495,0.9505	-226.88
0.1001,0.8999	-222.03
0.0416,0.9584	-221.05
0.0754,0.9246	-226.29
0.0878,0.9122	-223.96
0.0752,0.9248	-226.29
0.0489,0.9511	-229.87
0.0968,0.9032	-224.15
0.0545,0.9455	-220.96
0.0922,0.9078	-226.33
0.0698,0.9302	-226.33
0.0680,0.9320	-221.12
0.0474,0.9526	-220.97
0.0836,0.9164	-231.07
0.0644,0.9356	-218.38
0.0972,0.9028	-228.62
0.0952,0.9048	-226.36
0.0718,0.9282	-223.75
0.0499,0.9501	-220.96
0.0973,0.9027	-228.62
0.0676,0.9324	-231.61
0.0985,0.9015	-226.40
0.1002,0.8998	-233.01
0.0843,0.9157	-235.82
0.0478,0.9522	-223.96
0.1107,0.8893	-232.86
0.0785,0.9215	-218.89
0.1015,0.8985	-232.99
0.1017,0.8983	-226.45
0.0914,0.9086	-219.43
0.0461,0.9539	-230.07
0.0953,0.9047	-226.36
0.0858,0.9142	-223.92
0.1136,0.8864	-222.56
0.0882,0.9118	-223.96
0.1027,0.8973	-224.30
0.0463,0.9537	-217.96
0.1136,0.8864	-226.67
0.0838,0.9162	-226.28
0.1244,0.8756	-230.83
0.0875,0.9125	-221.61
0.1183,0.8817	-222.76
0.0476,0.9524	-220.97
0.1229,0.8771	-226.89
0.1195,0.8805	-232.79
0.0920,0.9080	-224.04
0.0848,0.9152	-233.42
0.1065,0.8935	-226.53
0.0522,0.9478	-218.06
0.1118,0.8882	-224.56
0.1165,0.8835	-232.81
0.0934,0.9066	-224.07
0.0843,0.9157	-223.90
0.1035,0.8965	-226.48
0.0578,0.9422	-226.57
0.1238,0.8762	-226.91
0.1089,0.8911	-230.78
0.0834,0.9166	-223.88
0.0855,0.9145	-223.92
0.0922,0.9078	-226.33
0.0690,0.9310	-226.34
0.1116,0.8884	-224.55
0.1110,0.8890	-222.45
0.0799,0.9201	-218.94
0.0806,0.9194	-218.97
0.0772,0.9228	-223.80
0.0654,0.9346	-223.73
0.1279,0.8721	-221.26
0.1113,0.8887	-228.70
0.0706,0.9294	-223.75
0.0877,0.9123	-219.27
0.0847,0.9153	-231.04
0.0733,0.9267	-228.84
0.1076,0.8924	-224.43
0.1021,0.8979	-222.11
0.0957,0.9043	-219.63
0.0877,0.9123	-226.30
0.0873,0.9127	-238.03
0.0549,0.9451	-220.97
0.0839,0.9161	-226.28
0.1103,0.8897	-234.95
0.0825,0.9175	-221.46
0.0855,0.9145	-226.29
0.0881,0.9119	-226.30
0.0554,0.9446	-226.64
0.0805,0.9195	-226.27
0.0898,0.9102	-221.68
0.0812,0.9188	-228.70
0.1070,0.8930	-228.66
0.0805,0.9195	-228.71
0.0663,0.9337	-234.32
0.0947,0.9053	-233.13
0.1229,0.8771	-228.85
0.0827,0.9173	-223.87
0.0991,0.9009	-222.00
0.0743,0.9257	-226.29
0.0900,0.9100	-226.31
0.0986,0.9014	-228.62
0.1161,0.8839	-222.67
0.0793,0.9207	-223.82
0.1024,0.8976	-224.29
0.0701,0.9299	-221.16
0.0950,0.9050	-226.36
0.1044,0.8956	-222.20
0.1428,0.8572	-232.84
0.0777,0.9223	-218.86
0.0989,0.9011	-224.20
0.0808,0.9192	-226.27
0.0980,0.9020	-226.40
0.1124,0.8876	-230.78
0.1268,0.8732	-226.99
0.1007,0.8993	-224.24
0.0856,0.9144	-223.92
0.0696,0.9304	-228.93
0.0947,0.9053	-226.36
0.1092,0.8908	-222.38
0.1236,0.8764	-224.94
0.1084,0.8916	-224.46
0.0742,0.9258	-226.29
0.0840,0.9160	-219.11
0.0889,0.9111	-221.65
0.1421,0.8579	-232.83
0.1373,0.8627	-230.97
0.1381,0.8619	-227.31
0.0813,0.9187	-223.85
0.0861,0.9139	-223.93
0.0887,0.9113	-221.65
0.1470,0.8530	-224.08
0.1383,0.8617	-238.30
0.1406,0.8594	-231.01
0.0684,0.9316	-218.51
0.0816,0.9184	-228.70
0.0973,0.9027	-224.16
0.1054,0.8946	-226.51
0.1646,0.8354	-236.35
0.1359,0.8641	-234.65
0.0548,0.9452	-223.81
0.0890,0.9110	-228.63
0.0882,0.9118	-221.63
0.1200,0.8800	-234.78
0.1298,0.8702	-225.17
0.1327,0.8673	-232.79
0.0573,0.9427	-220.98
0.1083,0.8917	-230.78
0.0708,0.9292	-226.32
0.1185,0.8815	-222.77
0.1202,0.8798	-230.80
0.1366,0.8634	-229.11
0.0551,0.9449	-220.97
0.0985,0.9015	-224.19
0.0737,0.9263	-231.36
0.1543,0.8457	-236.36
0.1172,0.8828	-232.81
0.1498,0.8502	-234.64
0.0694,0.9306	-218.55
0.0740,0.9260	-231.35
0.0714,0.9286	-228.88
0.1725,0.8275	-234.80
0.0972,0.9028	-228.62
0.1372,0.8628	-227.29
0.0795,0.9205	-228.72
0.0691,0.9309	-226.34
0.0803,0.9197	-223.84
0.1759,0.8241	-227.12
0.0806,0.9194	-228.71
0.1394,0.8606	-234.64
0.0867,0.9133	-228.65
0.0607,0.9393	-226.49
0.0918,0.9082	-226.33
0.1596,0.8404	-231.36
0.0871,0.9129	-230.99
0.1627,0.8373	-229.79
0.0917,0.9083	-224.03
0.0665,0.9335	-231.66
0.0835,0.9165	-223.88
0.1511,0.8489	-226.01
0.0956,0.9044	-221.87
0.1555,0.8445	-236.35
0.0999,0.9001	-228.62
0.0740,0.9260	-228.82
0.0735,0.9265	-226.30
0.1271,0.8729	-228.92
0.0963,0.9037	-219.66
0.1859,0.8141	-232.03
0.0898,0.9102	-223.99
0.0743,0.9257	-223.77
0.0664,0.9336	-223.73
0.1102,0.8898	-230.78
0.0918,0.9082	-226.33
0.1887,0.8113	-227.73
0.0876,0.9124	-226.30
0.0854,0.9146	-221.54
0.0722,0.9278	-223.75
0.1178,0.8822	-224.75
0.0824,0.9176	-221.45
0.2163,0.7837	-233.00
0.0845,0.9155	-228.66
0.0875,0.9125	-228.64
0.0673,0.9327	-221.11
0.1230,0.8770	-228.85
0.0808,0.9192	-223.84
0.2435,0.7565	-240.81
0.0775,0.9225	-228.76
0.0692,0.9308	-223.74
0.0492,0.9508	-220.96
0.1302,0.8698	-228.98
0.0617,0.9383	-226.47
0.2463,0.7537	-240.83
0.0654,0.9346	-221.07
0.0708,0.9292	-218.60
0.0422,0.9578	-227.28
0.1110,0.8890	-234.94
0.0534,0.9466	-220.96
0.1873,0.8127	-229.13
0.0860,0.9140	-228.65
0.0661,0.9339	-226.38
0.0477,0.9523	-223.97
0.0956,0.9044	-226.37
0.0515,0.9485	-218.05
0.1845,0.8155	-233.47
0.0735,0.9265	-223.76
0.0734,0.9266	-221.23
0.0561,0.9439	-223.79
0.1113,0.8887	-224.54
0.0543,0.9457	-226.68
0.1801,0.8199	-233.38
0.0767,0.9233	-226.28
0.0691,0.9309	-223.74
0.0566,0.9434	-218.16
0.1143,0.8857	-224.64
0.0450,0.9550	-221.00
0.1402,0.8598	-225.56
0.0835,0.9165	-228.67
0.0512,0.9488	-218.04
0.0526,0.9474	-226.74
0.0975,0.9025	-221.94
0.0488,0.9512	-218.00
0.1362,0.8638	-225.41
0.0706,0.9294	-228.90
0.0522,0.9478	-220.96
0.0575,0.9425	-226.58
0.0760,0.9240	-221.29
0.0400,0.9600	-217.90
0.1541,0.8459	-229.55
0.0578,0.9422	-220.98
0.0696,0.9304	-228.93
0.0546,0.9454	-218.11
0.0710,0.9290	-218.61
0.0366,0.9634	-224.45
0.1865,0.8135	-226.15
0.0445,0.9555	-221.00
