#isoforms=['ENSG00000101294.SE.1.A.up_ENSG00000101294.SE.1.A.SE1_ENSG00000101294.SE.1.A.dn','ENSG00000101294.SE.1.B.up_ENSG00000101294.SE.1.B.dn']	exon_lens=('ENSG00000101294.SE.1.A.up',99),('ENSG00000101294.SE.1.A.SE1',376),('ENSG00000101294.SE.1.A.dn',89),('ENSG00000101294.SE.1.B.up',99),('ENSG00000101294.SE.1.B.dn',89)	iters=5000	burn_in=500	lag=10	percent_accept=97.63	proposal_type=drift	counts=(0,0):2949,(1,0):615	assigned_counts=0:615	chrom=chr20	strand=+	mRNA_starts=31527484,31527484	mRNA_ends=31545035,31545035
sampled_psi	log_score
0.9501,0.0499	-3710.42
0.9755,0.0245	-3708.84
0.9641,0.0359	-3709.54
0.9807,0.0193	-3708.53
0.9545,0.0455	-3710.14
0.9730,0.0270	-3708.99
0.9540,0.0460	-3710.17
0.9697,0.0303	-3709.20
0.9679,0.0321	-3709.31
0.9856,0.0144	-3708.24
0.9491,0.0509	-3710.48
0.9750,0.0250	-3708.87
0.9528,0.0472	-3710.25
0.9752,0.0248	-3708.86
0.9699,0.0301	-3709.18
0.9848,0.0152	-3708.28
0.9355,0.0645	-3711.36
0.9784,0.0216	-3708.66
0.9504,0.0496	-3710.40
0.9775,0.0225	-3708.72
0.9585,0.0415	-3709.89
0.9854,0.0146	-3708.25
0.9455,0.0545	-3710.72
0.9795,0.0205	-3708.60
0.9496,0.0504	-3710.45
0.9758,0.0242	-3708.83
0.9436,0.0564	-3710.84
0.9874,0.0126	-3708.13
0.9485,0.0515	-3710.52
0.9846,0.0154	-3708.29
0.9604,0.0396	-3709.77
0.9789,0.0211	-3708.64
0.9506,0.0494	-3710.39
0.9908,0.0092	-3707.93
0.9587,0.0413	-3709.88
0.9844,0.0156	-3708.30
0.9651,0.0349	-3709.48
0.9810,0.0190	-3708.51
0.9509,0.0491	-3710.37
0.9903,0.0097	-3707.96
0.9658,0.0342	-3709.43
0.9823,0.0177	-3708.43
0.9659,0.0341	-3709.43
0.9832,0.0168	-3708.38
0.9494,0.0506	-3710.46
0.9911,0.0089	-3707.91
0.9631,0.0369	-3709.60
0.9765,0.0235	-3708.78
0.9672,0.0328	-3709.35
0.9762,0.0238	-3708.80
0.9530,0.0470	-3710.23
0.9905,0.0095	-3707.94
0.9562,0.0438	-3710.03
0.9785,0.0215	-3708.66
0.9641,0.0359	-3709.54
0.9817,0.0183	-3708.47
0.9482,0.0518	-3710.54
0.9913,0.0087	-3707.90
0.9455,0.0545	-3710.71
0.9745,0.0255	-3708.90
0.9608,0.0392	-3709.74
0.9770,0.0230	-3708.75
0.9352,0.0648	-3711.38
0.9907,0.0093	-3707.94
0.9552,0.0448	-3710.10
0.9722,0.0278	-3709.04
0.9713,0.0287	-3709.09
0.9817,0.0183	-3708.47
0.9348,0.0652	-3711.41
0.9920,0.0080	-3707.86
0.9489,0.0511	-3710.49
0.9721,0.0279	-3709.05
0.9634,0.0366	-3709.58
0.9790,0.0210	-3708.63
0.9364,0.0636	-3711.30
0.9914,0.0086	-3707.89
0.9553,0.0447	-3710.09
0.9740,0.0260	-3708.93
0.9605,0.0395	-3709.76
0.9816,0.0184	-3708.47
0.9365,0.0635	-3711.30
0.9897,0.0103	-3707.99
0.9242,0.0758	-3712.12
0.9734,0.0266	-3708.97
0.9701,0.0299	-3709.17
0.9794,0.0206	-3708.61
0.9364,0.0636	-3711.30
0.9923,0.0077	-3707.84
0.9353,0.0647	-3711.38
0.9633,0.0367	-3709.59
0.9741,0.0259	-3708.93
0.9771,0.0229	-3708.74
0.9277,0.0723	-3711.88
0.9932,0.0068	-3707.79
0.9284,0.0716	-3711.84
0.9643,0.0357	-3709.53
0.9778,0.0222	-3708.70
0.9727,0.0273	-3709.01
0.9313,0.0687	-3711.64
0.9938,0.0062	-3707.75
0.9296,0.0704	-3711.75
0.9651,0.0349	-3709.48
0.9693,0.0307	-3709.22
0.9778,0.0222	-3708.70
0.9310,0.0690	-3711.66
0.9927,0.0073	-3707.81
0.9339,0.0661	-3711.47
0.9636,0.0364	-3709.57
0.9694,0.0306	-3709.22
0.9803,0.0197	-3708.55
0.9357,0.0643	-3711.35
0.9911,0.0089	-3707.91
0.9295,0.0705	-3711.76
0.9684,0.0316	-3709.28
0.9640,0.0360	-3709.54
0.9804,0.0196	-3708.54
0.9408,0.0592	-3711.01
0.9911,0.0089	-3707.91
0.9511,0.0489	-3710.35
0.9715,0.0285	-3709.08
0.9668,0.0332	-3709.37
0.9788,0.0212	-3708.64
0.9370,0.0630	-3711.26
0.9922,0.0078	-3707.84
0.9602,0.0398	-3709.78
0.9775,0.0225	-3708.72
0.9707,0.0293	-3709.14
0.9774,0.0226	-3708.73
0.9379,0.0621	-3711.21
0.9909,0.0091	-3707.92
0.9577,0.0423	-3709.94
0.9797,0.0203	-3708.59
0.9695,0.0305	-3709.21
0.9778,0.0222	-3708.70
0.9347,0.0653	-3711.42
0.9917,0.0083	-3707.87
0.9531,0.0469	-3710.23
0.9831,0.0169	-3708.39
0.9691,0.0309	-3709.23
0.9828,0.0172	-3708.40
0.9274,0.0726	-3711.90
0.9907,0.0093	-3707.93
0.9469,0.0531	-3710.63
0.9812,0.0188	-3708.50
0.9710,0.0290	-3709.12
0.9833,0.0167	-3708.37
0.9146,0.0854	-3712.77
0.9923,0.0077	-3707.84
0.9482,0.0518	-3710.54
0.9850,0.0150	-3708.27
0.9645,0.0355	-3709.51
0.9872,0.0128	-3708.14
0.9193,0.0807	-3712.44
0.9909,0.0091	-3707.92
0.9502,0.0498	-3710.41
0.9843,0.0157	-3708.31
0.9682,0.0318	-3709.28
0.9873,0.0127	-3708.14
0.9216,0.0784	-3712.29
0.9911,0.0089	-3707.91
0.9586,0.0414	-3709.88
0.9889,0.0111	-3708.04
0.9701,0.0299	-3709.17
0.9843,0.0157	-3708.31
0.9324,0.0676	-3711.57
0.9906,0.0094	-3707.94
0.9623,0.0377	-3709.65
0.9889,0.0111	-3708.04
0.9754,0.0246	-3708.85
0.9886,0.0114	-3708.06
0.9309,0.0691	-3711.66
0.9898,0.0102	-3707.98
0.9677,0.0323	-3709.32
0.9893,0.0107	-3708.01
0.9734,0.0266	-3708.97
0.9876,0.0124	-3708.12
0.9418,0.0582	-3710.95
0.9907,0.0093	-3707.94
0.9639,0.0361	-3709.55
0.9877,0.0123	-3708.11
0.9799,0.0201	-3708.58
0.9886,0.0114	-3708.06
0.9378,0.0622	-3711.22
0.9910,0.0090	-3707.92
0.9706,0.0294	-3709.14
0.9872,0.0128	-3708.14
0.9827,0.0173	-3708.41
0.9908,0.0092	-3707.93
0.9482,0.0518	-3710.54
0.9892,0.0108	-3708.02
0.9692,0.0308	-3709.23
0.9867,0.0133	-3708.17
0.9789,0.0211	-3708.64
0.9912,0.0088	-3707.90
0.9514,0.0486	-3710.34
0.9895,0.0105	-3708.01
0.9671,0.0329	-3709.35
0.9862,0.0138	-3708.20
0.9648,0.0352	-3709.49
0.9929,0.0071	-3707.81
0.9504,0.0496	-3710.40
0.9885,0.0115	-3708.06
0.9657,0.0343	-3709.44
0.9865,0.0135	-3708.18
0.9690,0.0310	-3709.24
0.9946,0.0054	-3707.71
0.9505,0.0495	-3710.39
0.9861,0.0139	-3708.21
0.9626,0.0374	-3709.63
0.9851,0.0149	-3708.27
0.9722,0.0278	-3709.04
0.9951,0.0049	-3707.67
0.9507,0.0493	-3710.38
0.9797,0.0203	-3708.59
0.9586,0.0414	-3709.88
0.9880,0.0120	-3708.09
0.9685,0.0315	-3709.27
0.9958,0.0042	-3707.63
0.9695,0.0305	-3709.21
0.9740,0.0260	-3708.93
0.9605,0.0395	-3709.76
0.9883,0.0117	-3708.08
0.9703,0.0297	-3709.16
0.9960,0.0040	-3707.62
0.9706,0.0294	-3709.14
0.9695,0.0305	-3709.20
0.9549,0.0451	-3710.11
0.9892,0.0108	-3708.02
0.9652,0.0348	-3709.47
0.9960,0.0040	-3707.62
0.9698,0.0302	-3709.19
0.9708,0.0292	-3709.13
0.9446,0.0554	-3710.77
0.9873,0.0127	-3708.13
0.9582,0.0418	-3709.90
0.9957,0.0043	-3707.64
0.9698,0.0302	-3709.19
0.9632,0.0368	-3709.59
0.9487,0.0513	-3710.51
0.9873,0.0127	-3708.14
0.9615,0.0385	-3709.70
0.9958,0.0042	-3707.64
0.9596,0.0404	-3709.82
0.9679,0.0321	-3709.30
0.9364,0.0636	-3711.31
0.9846,0.0154	-3708.29
0.9613,0.0387	-3709.71
0.9949,0.0051	-3707.69
0.9595,0.0405	-3709.82
0.9718,0.0282	-3709.06
0.9310,0.0690	-3711.66
0.9825,0.0175	-3708.42
0.9604,0.0396	-3709.77
0.9932,0.0068	-3707.79
0.9638,0.0362	-3709.56
0.9688,0.0312	-3709.25
0.9305,0.0695	-3711.69
0.9804,0.0196	-3708.55
0.9486,0.0514	-3710.51
0.9944,0.0056	-3707.71
0.9597,0.0403	-3709.81
0.9726,0.0274	-3709.02
0.9152,0.0848	-3712.73
0.9831,0.0169	-3708.38
0.9565,0.0435	-3710.01
0.9952,0.0048	-3707.67
0.9567,0.0433	-3710.00
0.9731,0.0269	-3708.99
0.9213,0.0787	-3712.31
0.9813,0.0187	-3708.49
0.9554,0.0446	-3710.08
0.9953,0.0047	-3707.67
0.9538,0.0462	-3710.18
0.9766,0.0234	-3708.77
0.9177,0.0823	-3712.55
0.9818,0.0182	-3708.46
0.9605,0.0395	-3709.76
0.9959,0.0041	-3707.63
0.9654,0.0346	-3709.46
0.9786,0.0214	-3708.65
0.9266,0.0734	-3711.95
0.9813,0.0187	-3708.49
0.9637,0.0363	-3709.57
0.9953,0.0047	-3707.66
0.9733,0.0267	-3708.98
0.9790,0.0210	-3708.63
0.9391,0.0609	-3711.13
0.9722,0.0278	-3709.04
0.9653,0.0347	-3709.47
0.9947,0.0053	-3707.70
0.9794,0.0206	-3708.61
0.9797,0.0203	-3708.59
0.9428,0.0572	-3710.89
0.9723,0.0277	-3709.03
0.9687,0.0313	-3709.25
0.9965,0.0035	-3707.60
0.9820,0.0180	-3708.45
0.9783,0.0217	-3708.67
0.9331,0.0669	-3711.52
0.9783,0.0217	-3708.67
0.9730,0.0270	-3708.99
0.9962,0.0038	-3707.61
0.9829,0.0171	-3708.40
0.9812,0.0188	-3708.49
0.9322,0.0678	-3711.58
0.9787,0.0213	-3708.64
0.9746,0.0254	-3708.90
0.9962,0.0038	-3707.61
0.9807,0.0193	-3708.53
0.9756,0.0244	-3708.83
0.9251,0.0749	-3712.05
0.9775,0.0225	-3708.72
0.9785,0.0215	-3708.66
0.9961,0.0039	-3707.62
0.9788,0.0212	-3708.64
0.9788,0.0212	-3708.64
0.9170,0.0830	-3712.60
0.9793,0.0207	-3708.61
0.9772,0.0228	-3708.74
0.9967,0.0033	-3707.58
0.9776,0.0224	-3708.72
0.9845,0.0155	-3708.30
0.9130,0.0870	-3712.87
0.9857,0.0143	-3708.23
0.9754,0.0246	-3708.84
0.9946,0.0054	-3707.71
0.9763,0.0237	-3708.79
0.9846,0.0154	-3708.29
0.9116,0.0884	-3712.97
0.9867,0.0133	-3708.17
0.9713,0.0287	-3709.10
0.9939,0.0061	-3707.75
0.9774,0.0226	-3708.73
0.9832,0.0168	-3708.38
0.9178,0.0822	-3712.54
0.9880,0.0120	-3708.09
0.9723,0.0277	-3709.04
0.9930,0.0070	-3707.80
0.9812,0.0188	-3708.50
0.9857,0.0143	-3708.23
0.9354,0.0646	-3711.37
0.9874,0.0126	-3708.13
0.9710,0.0290	-3709.12
0.9946,0.0054	-3707.70
0.9821,0.0179	-3708.44
0.9813,0.0187	-3708.49
0.9334,0.0666	-3711.50
0.9882,0.0118	-3708.08
0.9765,0.0235	-3708.78
0.9944,0.0056	-3707.71
0.9795,0.0205	-3708.60
0.9821,0.0179	-3708.44
0.9262,0.0738	-3711.98
0.9863,0.0137	-3708.19
0.9790,0.0210	-3708.63
0.9955,0.0045	-3707.65
0.9802,0.0198	-3708.56
0.9799,0.0201	-3708.57
0.9280,0.0720	-3711.86
0.9806,0.0194	-3708.53
0.9785,0.0215	-3708.66
0.9954,0.0046	-3707.66
0.9816,0.0184	-3708.47
0.9808,0.0192	-3708.52
0.9448,0.0552	-3710.76
0.9761,0.0239	-3708.80
0.9732,0.0268	-3708.98
0.9963,0.0037	-3707.61
0.9787,0.0213	-3708.65
0.9799,0.0201	-3708.58
0.9497,0.0503	-3710.44
0.9696,0.0304	-3709.20
0.9732,0.0268	-3708.98
0.9962,0.0038	-3707.61
0.9785,0.0215	-3708.66
0.9815,0.0185	-3708.48
0.9559,0.0441	-3710.05
0.9537,0.0463	-3710.19
0.9747,0.0253	-3708.89
0.9955,0.0045	-3707.65
0.9775,0.0225	-3708.72
0.9845,0.0155	-3708.30
0.9581,0.0419	-3709.92
0.9485,0.0515	-3710.52
0.9723,0.0277	-3709.04
0.9959,0.0041	-3707.63
0.9763,0.0237	-3708.79
0.9887,0.0113	-3708.05
0.9555,0.0445	-3710.08
0.9493,0.0507	-3710.47
0.9686,0.0314	-3709.26
0.9967,0.0033	-3707.58
0.9758,0.0242	-3708.82
0.9884,0.0116	-3708.07
0.9549,0.0451	-3710.12
0.9463,0.0537	-3710.66
0.9674,0.0326	-3709.33
0.9967,0.0033	-3707.58
0.9774,0.0226	-3708.73
0.9852,0.0148	-3708.26
0.9531,0.0469	-3710.23
0.9584,0.0416	-3709.90
0.9714,0.0286	-3709.09
0.9972,0.0028	-3707.55
0.9729,0.0271	-3709.00
0.9859,0.0141	-3708.22
0.9487,0.0513	-3710.51
0.9566,0.0434	-3710.01
0.9703,0.0297	-3709.16
0.9963,0.0037	-3707.61
0.9753,0.0247	-3708.85
0.9869,0.0131	-3708.16
0.9408,0.0592	-3711.02
0.9378,0.0622	-3711.21
0.9659,0.0341	-3709.43
0.9962,0.0038	-3707.61
0.9771,0.0229	-3708.75
0.9884,0.0116	-3708.07
0.9420,0.0580	-3710.94
0.9384,0.0616	-3711.17
0.9637,0.0363	-3709.56
0.9971,0.0029	-3707.56
0.9784,0.0216	-3708.66
0.9909,0.0091	-3707.92
0.9491,0.0509	-3710.48
0.9422,0.0578	-3710.93
0.9620,0.0380	-3709.67
0.9972,0.0028	-3707.55
0.9789,0.0211	-3708.63
0.9914,0.0086	-3707.89
0.9536,0.0464	-3710.20
0.9281,0.0719	-3711.85
0.9645,0.0355	-3709.52
0.9966,0.0034	-3707.59
0.9831,0.0169	-3708.38
0.9916,0.0084	-3707.88
0.9494,0.0506	-3710.46
0.9432,0.0568	-3710.86
0.9624,0.0376	-3709.64
0.9971,0.0029	-3707.56
0.9813,0.0187	-3708.49
0.9916,0.0084	-3707.88
0.9346,0.0654	-3711.42
0.9508,0.0492	-3710.37
0.9615,0.0385	-3709.70
0.9976,0.0024	-3707.53
0.9826,0.0174	-3708.42
0.9909,0.0091	-3707.92
0.9316,0.0684	-3711.62
0.9518,0.0482	-3710.31
0.9671,0.0329	-3709.35
0.9975,0.0025	-3707.54
0.9846,0.0154	-3708.30
0.9892,0.0108	-3708.02
0.9371,0.0629	-3711.26
0.9470,0.0530	-3710.62
0.9692,0.0308	-3709.22
0.9976,0.0024	-3707.53
0.9818,0.0182	-3708.46
0.9892,0.0108	-3708.02
0.9375,0.0625	-3711.23
0.9313,0.0687	-3711.64
0.9759,0.0241	-3708.82
0.9980,0.0020	-3707.51
0.9785,0.0215	-3708.66
0.9896,0.0104	-3708.00
0.9456,0.0544	-3710.71
0.9284,0.0716	-3711.83
0.9757,0.0243	-3708.83
0.9985,0.0015	-3707.48
0.9784,0.0216	-3708.67
0.9884,0.0116	-3708.07
0.9363,0.0637	-3711.31
0.9300,0.0700	-3711.73
0.9754,0.0246	-3708.85
0.9982,0.0018	-3707.50
0.9815,0.0185	-3708.48
0.9871,0.0129	-3708.15
0.9272,0.0728	-3711.91
0.9179,0.0821	-3712.54
0.9714,0.0286	-3709.09
0.9981,0.0019	-3707.50
0.9835,0.0165	-3708.36
0.9889,0.0111	-3708.04
0.9440,0.0560	-3710.81
0.9234,0.0766	-3712.16
0.9816,0.0184	-3708.47
0.9981,0.0019	-3707.50
0.9852,0.0148	-3708.26
0.9903,0.0097	-3707.96
0.9443,0.0557	-3710.79
0.9400,0.0600	-3711.07
0.9851,0.0149	-3708.27
0.9981,0.0019	-3707.50
0.9839,0.0161	-3708.33
0.9913,0.0087	-3707.90
0.9503,0.0497	-3710.41
0.9483,0.0517	-3710.54
0.9863,0.0137	-3708.20
0.9976,0.0024	-3707.53
0.9823,0.0177	-3708.43
0.9917,0.0083	-3707.87
0.9534,0.0466	-3710.21
0.9426,0.0574	-3710.90
0.9859,0.0141	-3708.22
0.9977,0.0023	-3707.52
0.9756,0.0244	-3708.83
0.9903,0.0097	-3707.96
0.9583,0.0417	-3709.90
0.9448,0.0552	-3710.76
0.9895,0.0105	-3708.00
0.9980,0.0020	-3707.51
0.9725,0.0275	-3709.02
0.9904,0.0096	-3707.95
0.9686,0.0314	-3709.26
0.9404,0.0596	-3711.04
0.9860,0.0140	-3708.21
0.9982,0.0018	-3707.50
0.9722,0.0278	-3709.04
0.9879,0.0121	-3708.10
0.9700,0.0300	-3709.18
0.9581,0.0419	-3709.91
0.9825,0.0175	-3708.42
0.9982,0.0018	-3707.49
0.9760,0.0240	-3708.81
0.9873,0.0127	-3708.13
0.9668,0.0332	-3709.37
0.9563,0.0437	-3710.02
0.9823,0.0177	-3708.43
0.9980,0.0020	-3707.50
0.9744,0.0256	-3708.91
0.9852,0.0148	-3708.26
0.9735,0.0265	-3708.96
0.9456,0.0544	-3710.71
0.9822,0.0178	-3708.44
0.9978,0.0022	-3707.52
0.9769,0.0231	-3708.76
0.9860,0.0140	-3708.21
0.9696,0.0304	-3709.20
0.9533,0.0467	-3710.22
0.9791,0.0209	-3708.62
0.9981,0.0019	-3707.50
0.9845,0.0155	-3708.30
0.9832,0.0168	-3708.38
0.9680,0.0320	-3709.30
0.9620,0.0380	-3709.67
0.9842,0.0158	-3708.32
0.9980,0.0020	-3707.51
0.9815,0.0185	-3708.48
0.9807,0.0193	-3708.53
0.9643,0.0357	-3709.53
0.9632,0.0368	-3709.60
0.9854,0.0146	-3708.24
0.9980,0.0020	-3707.50
0.9817,0.0183	-3708.47
0.9871,0.0129	-3708.14
0.9657,0.0343	-3709.44
0.9740,0.0260	-3708.93
0.9827,0.0173	-3708.41
0.9979,0.0021	-3707.51
0.9794,0.0206	-3708.61
0.9861,0.0139	-3708.20
0.9599,0.0401	-3709.80
0.9752,0.0248	-3708.86
0.9786,0.0214	-3708.65
0.9975,0.0025	-3707.54
0.9768,0.0232	-3708.76
0.9888,0.0112	-3708.04
0.9646,0.0354	-3709.51
0.9704,0.0296	-3709.15
0.9742,0.0258	-3708.92
0.9971,0.0029	-3707.56
0.9761,0.0239	-3708.80
0.9894,0.0106	-3708.01
0.9547,0.0453	-3710.12
0.9665,0.0335	-3709.39
0.9706,0.0294	-3709.14
0.9957,0.0043	-3707.64
0.9752,0.0248	-3708.86
0.9901,0.0099	-3707.97
0.9675,0.0325	-3709.33
0.9688,0.0312	-3709.25
0.9693,0.0307	-3709.22
0.9950,0.0050	-3707.68
0.9739,0.0261	-3708.94
0.9872,0.0128	-3708.14
0.9709,0.0291	-3709.12
0.9675,0.0325	-3709.33
0.9745,0.0255	-3708.90
0.9969,0.0031	-3707.57
0.9711,0.0289	-3709.11
0.9874,0.0126	-3708.13
0.9776,0.0224	-3708.72
0.9746,0.0254	-3708.89
0.9801,0.0199	-3708.56
0.9969,0.0031	-3707.57
0.9712,0.0288	-3709.10
0.9903,0.0097	-3707.96
0.9767,0.0233	-3708.77
0.9730,0.0270	-3708.99
0.9783,0.0217	-3708.67
0.9980,0.0020	-3707.51
0.9722,0.0278	-3709.04
0.9901,0.0099	-3707.97
0.9777,0.0223	-3708.71
0.9779,0.0221	-3708.69
0.9737,0.0263	-3708.95
0.9977,0.0023	-3707.52
0.9653,0.0347	-3709.46
0.9888,0.0112	-3708.04
0.9754,0.0246	-3708.85
0.9832,0.0168	-3708.38
0.9622,0.0378	-3709.65
0.9979,0.0021	-3707.51
0.9643,0.0357	-3709.53
0.9891,0.0109	-3708.03
0.9745,0.0255	-3708.90
0.9809,0.0191	-3708.52
0.9718,0.0282	-3709.07
0.9977,0.0023	-3707.52
0.9726,0.0274	-3709.02
0.9887,0.0113	-3708.05
0.9799,0.0201	-3708.57
0.9824,0.0176	-3708.43
0.9788,0.0212	-3708.64
0.9980,0.0020	-3707.51
0.9771,0.0229	-3708.75
0.9879,0.0121	-3708.10
0.9834,0.0166	-3708.36
0.9798,0.0202	-3708.58
0.9764,0.0236	-3708.79
0.9983,0.0017	-3707.49
0.9747,0.0253	-3708.89
0.9883,0.0117	-3708.08
0.9846,0.0154	-3708.29
0.9787,0.0213	-3708.65
0.9831,0.0169	-3708.39
0.9982,0.0018	-3707.50
0.9647,0.0353	-3709.50
0.9890,0.0110	-3708.03
0.9816,0.0184	-3708.47
0.9780,0.0220	-3708.69
0.9842,0.0158	-3708.32
0.9979,0.0021	-3707.52
0.9698,0.0302	-3709.19
0.9914,0.0086	-3707.89
0.9786,0.0214	-3708.65
0.9780,0.0220	-3708.69
0.9858,0.0142	-3708.22
0.9977,0.0023	-3707.52
0.9715,0.0285	-3709.08
0.9914,0.0086	-3707.89
0.9756,0.0244	-3708.83
0.9769,0.0231	-3708.75
0.9836,0.0164	-3708.36
0.9981,0.0019	-3707.50
0.9778,0.0222	-3708.70
0.9923,0.0077	-3707.84
0.9785,0.0215	-3708.66
0.9771,0.0229	-3708.74
0.9826,0.0174	-3708.41
0.9985,0.0015	-3707.48
0.9790,0.0210	-3708.63
0.9925,0.0075	-3707.83
0.9836,0.0164	-3708.35
0.9807,0.0193	-3708.53
0.9806,0.0194	-3708.54
0.9988,0.0012	-3707.46
0.9696,0.0304	-3709.20
0.9940,0.0060	-3707.74
0.9811,0.0189	-3708.50
0.9822,0.0178	-3708.44
0.9800,0.0200	-3708.57
0.9989,0.0011	-3707.46
0.9691,0.0309	-3709.23
0.9930,0.0070	-3707.80
0.9838,0.0162	-3708.34
0.9781,0.0219	-3708.69
0.9766,0.0234	-3708.78
0.9988,0.0012	-3707.46
0.9677,0.0323	-3709.32
0.9926,0.0074	-3707.82
0.9838,0.0162	-3708.34
0.9763,0.0237	-3708.79
0.9751,0.0249	-3708.86
0.9986,0.0014	-3707.47
0.9795,0.0205	-3708.60
0.9916,0.0084	-3707.88
0.9840,0.0160	-3708.33
0.9791,0.0209	-3708.62
0.9757,0.0243	-3708.83
0.9986,0.0014	-3707.47
0.9795,0.0205	-3708.60
0.9916,0.0084	-3707.88
0.9859,0.0141	-3708.21
0.9758,0.0242	-3708.82
0.9729,0.0271	-3709.00
0.9984,0.0016	-3707.48
0.9828,0.0172	-3708.40
0.9919,0.0081	-3707.86
0.9856,0.0144	-3708.24
0.9753,0.0247	-3708.85
0.9644,0.0356	-3709.52
0.9984,0.0016	-3707.48
0.9869,0.0131	-3708.16
0.9935,0.0065	-3707.77
0.9879,0.0121	-3708.10
0.9655,0.0345	-3709.45
0.9664,0.0336	-3709.40
0.9984,0.0016	-3707.49
0.9876,0.0124	-3708.11
0.9931,0.0069	-3707.80
0.9871,0.0129	-3708.15
0.9580,0.0420	-3709.92
0.9639,0.0361	-3709.55
0.9981,0.0019	-3707.50
0.9896,0.0104	-3708.00
0.9956,0.0044	-3707.64
0.9857,0.0143	-3708.23
0.9535,0.0465	-3710.20
0.9707,0.0293	-3709.13
0.9980,0.0020	-3707.50
0.9906,0.0094	-3707.94
0.9957,0.0043	-3707.64
0.9853,0.0147	-3708.25
0.9503,0.0497	-3710.41
0.9761,0.0239	-3708.81
0.9978,0.0022	-3707.52
0.9887,0.0113	-3708.05
0.9955,0.0045	-3707.65
0.9855,0.0145	-3708.24
0.9448,0.0552	-3710.76
0.9745,0.0255	-3708.90
0.9977,0.0023	-3707.53
0.9883,0.0117	-3708.08
0.9954,0.0046	-3707.66
0.9834,0.0166	-3708.37
0.9524,0.0476	-3710.27
0.9752,0.0248	-3708.86
0.9975,0.0025	-3707.54
0.9857,0.0143	-3708.23
0.9944,0.0056	-3707.72
0.9820,0.0180	-3708.45
0.9591,0.0409	-3709.85
0.9742,0.0258	-3708.92
0.9976,0.0024	-3707.53
0.9839,0.0161	-3708.34
0.9941,0.0059	-3707.73
0.9824,0.0176	-3708.42
0.9528,0.0472	-3710.25
0.9692,0.0308	-3709.22
0.9963,0.0037	-3707.61
0.9862,0.0138	-3708.20
0.9941,0.0059	-3707.74
0.9859,0.0141	-3708.22
0.9461,0.0539	-3710.68
0.9669,0.0331	-3709.37
0.9960,0.0040	-3707.62
0.9851,0.0149	-3708.27
0.9945,0.0055	-3707.71
0.9832,0.0168	-3708.38
0.9477,0.0523	-3710.57
0.9654,0.0346	-3709.46
0.9961,0.0039	-3707.62
0.9855,0.0145	-3708.24
0.9945,0.0055	-3707.71
0.9812,0.0188	-3708.50
0.9438,0.0562	-3710.82
0.9647,0.0353	-3709.50
0.9956,0.0044	-3707.65
0.9847,0.0153	-3708.29
0.9946,0.0054	-3707.71
0.9746,0.0254	-3708.90
0.9539,0.0461	-3710.18
0.9661,0.0339	-3709.42
0.9960,0.0040	-3707.62
0.9889,0.0111	-3708.04
0.9924,0.0076	-3707.84
0.9712,0.0288	-3709.10
0.9578,0.0422	-3709.94
0.9627,0.0373	-3709.63
0.9968,0.0032	-3707.58
0.9891,0.0109	-3708.03
0.9920,0.0080	-3707.86
0.9705,0.0295	-3709.14
0.9547,0.0453	-3710.13
0.9639,0.0361	-3709.55
0.9967,0.0033	-3707.58
0.9889,0.0111	-3708.04
0.9927,0.0073	-3707.82
0.9706,0.0294	-3709.14
0.9623,0.0377	-3709.65
0.9615,0.0385	-3709.70
0.9960,0.0040	-3707.62
0.9901,0.0099	-3707.97
0.9914,0.0086	-3707.89
0.9784,0.0216	-3708.66
0.9632,0.0368	-3709.59
0.9674,0.0326	-3709.33
0.9964,0.0036	-3707.60
0.9900,0.0100	-3707.97
0.9921,0.0079	-3707.85
0.9777,0.0223	-3708.71
0.9549,0.0451	-3710.11
0.9699,0.0301	-3709.18
0.9962,0.0038	-3707.61
0.9882,0.0118	-3708.08
0.9916,0.0084	-3707.88
0.9733,0.0267	-3708.97
0.9604,0.0396	-3709.77
0.9694,0.0306	-3709.21
0.9956,0.0044	-3707.65
0.9891,0.0109	-3708.03
0.9908,0.0092	-3707.93
0.9751,0.0249	-3708.87
0.9586,0.0414	-3709.88
0.9660,0.0340	-3709.42
0.9955,0.0045	-3707.65
0.9893,0.0107	-3708.02
0.9888,0.0112	-3708.04
0.9757,0.0243	-3708.83
0.9623,0.0377	-3709.65
0.9647,0.0353	-3709.50
0.9967,0.0033	-3707.58
0.9895,0.0105	-3708.00
0.9860,0.0140	-3708.21
0.9796,0.0204	-3708.59
0.9593,0.0407	-3709.84
0.9702,0.0298	-3709.16
0.9969,0.0031	-3707.57
0.9880,0.0120	-3708.09
0.9874,0.0126	-3708.13
0.9817,0.0183	-3708.47
0.9488,0.0512	-3710.50
0.9777,0.0223	-3708.71
0.9964,0.0036	-3707.60
0.9890,0.0110	-3708.03
0.9843,0.0157	-3708.31
0.9791,0.0209	-3708.62
0.9493,0.0507	-3710.47
0.9799,0.0201	-3708.57
0.9963,0.0037	-3707.60
0.9907,0.0093	-3707.93
0.9813,0.0187	-3708.49
0.9810,0.0190	-3708.51
0.9512,0.0488	-3710.35
0.9826,0.0174	-3708.42
0.9955,0.0045	-3707.65
0.9890,0.0110	-3708.03
0.9845,0.0155	-3708.30
0.9844,0.0156	-3708.31
0.9494,0.0506	-3710.46
0.9809,0.0191	-3708.52
0.9961,0.0039	-3707.62
0.9917,0.0083	-3707.87
0.9831,0.0169	-3708.38
0.9813,0.0187	-3708.49
0.9553,0.0447	-3710.09
0.9758,0.0242	-3708.82
0.9967,0.0033	-3707.58
0.9926,0.0074	-3707.82
0.9892,0.0108	-3708.02
0.9831,0.0169	-3708.39
0.9589,0.0411	-3709.86
0.9741,0.0259	-3708.93
0.9969,0.0031	-3707.57
0.9912,0.0088	-3707.90
0.9904,0.0096	-3707.95
0.9826,0.0174	-3708.42
0.9646,0.0354	-3709.51
0.9779,0.0221	-3708.70
0.9958,0.0042	-3707.63
0.9915,0.0085	-3707.89
0.9899,0.0101	-3707.98
0.9865,0.0135	-3708.18
0.9599,0.0401	-3709.80
0.9801,0.0199	-3708.57
0.9963,0.0037	-3707.60
0.9910,0.0090	-3707.91
0.9904,0.0096	-3707.95
0.9837,0.0163	-3708.35
0.9725,0.0275	-3709.02
0.9789,0.0211	-3708.64
0.9969,0.0031	-3707.57
0.9919,0.0081	-3707.86
0.9920,0.0080	-3707.86
0.9813,0.0187	-3708.49
0.9695,0.0305	-3709.21
0.9808,0.0192	-3708.52
0.9949,0.0051	-3707.69
0.9904,0.0096	-3707.95
0.9927,0.0073	-3707.82
0.9757,0.0243	-3708.83
0.9766,0.0234	-3708.78
0.9784,0.0216	-3708.67
0.9948,0.0052	-3707.70
0.9906,0.0094	-3707.94
0.9926,0.0074	-3707.82
0.9722,0.0278	-3709.04
0.9774,0.0226	-3708.73
0.9677,0.0323	-3709.31
0.9950,0.0050	-3707.68
0.9891,0.0109	-3708.03
0.9900,0.0100	-3707.98
0.9688,0.0312	-3709.25
0.9720,0.0280	-3709.05
0.9714,0.0286	-3709.09
0.9950,0.0050	-3707.68
0.9905,0.0095	-3707.95
0.9898,0.0102	-3707.99
0.9651,0.0349	-3709.48
0.9758,0.0242	-3708.83
0.9707,0.0293	-3709.14
0.9958,0.0042	-3707.64
0.9884,0.0116	-3708.07
0.9901,0.0099	-3707.97
0.9623,0.0377	-3709.65
0.9712,0.0288	-3709.10
0.9692,0.0308	-3709.23
0.9956,0.0044	-3707.64
0.9892,0.0108	-3708.02
0.9862,0.0138	-3708.20
0.9645,0.0355	-3709.51
0.9795,0.0205	-3708.60
0.9753,0.0247	-3708.86
0.9952,0.0048	-3707.67
0.9897,0.0103	-3707.99
0.9896,0.0104	-3708.00
0.9585,0.0415	-3709.89
0.9811,0.0189	-3708.51
0.9747,0.0253	-3708.89
0.9952,0.0048	-3707.67
0.9871,0.0129	-3708.15
0.9892,0.0108	-3708.02
0.9660,0.0340	-3709.42
0.9847,0.0153	-3708.29
0.9739,0.0261	-3708.94
0.9945,0.0055	-3707.71
0.9854,0.0146	-3708.25
0.9871,0.0129	-3708.15
0.9689,0.0311	-3709.24
0.9837,0.0163	-3708.35
0.9798,0.0202	-3708.58
0.9943,0.0057	-3707.72
0.9836,0.0164	-3708.36
0.9858,0.0142	-3708.22
0.9717,0.0283	-3709.07
0.9819,0.0181	-3708.45
0.9776,0.0224	-3708.71
0.9946,0.0054	-3707.70
0.9821,0.0179	-3708.44
0.9823,0.0177	-3708.43
0.9649,0.0351	-3709.49
0.9795,0.0205	-3708.60
0.9824,0.0176	-3708.43
0.9939,0.0061	-3707.75
0.9832,0.0168	-3708.38
0.9842,0.0158	-3708.32
0.9669,0.0331	-3709.36
0.9755,0.0245	-3708.84
0.9838,0.0162	-3708.34
0.9944,0.0056	-3707.71
0.9836,0.0164	-3708.36
0.9853,0.0147	-3708.25
0.9662,0.0338	-3709.41
0.9735,0.0265	-3708.96
0.9885,0.0115	-3708.06
0.9956,0.0044	-3707.65
0.9805,0.0195	-3708.54
0.9863,0.0137	-3708.19
0.9640,0.0360	-3709.55
0.9720,0.0280	-3709.05
0.9897,0.0103	-3707.99
0.9952,0.0048	-3707.67
0.9757,0.0243	-3708.83
0.9858,0.0142	-3708.23
0.9594,0.0406	-3709.83
0.9690,0.0310	-3709.24
0.9894,0.0106	-3708.01
0.9951,0.0049	-3707.68
0.9816,0.0184	-3708.48
0.9833,0.0167	-3708.37
0.9526,0.0474	-3710.26
0.9658,0.0342	-3709.44
0.9891,0.0109	-3708.03
0.9942,0.0058	-3707.73
0.9809,0.0191	-3708.51
0.9833,0.0167	-3708.37
0.9558,0.0442	-3710.06
0.9691,0.0309	-3709.23
0.9911,0.0089	-3707.91
0.9930,0.0070	-3707.80
0.9787,0.0213	-3708.65
0.9848,0.0152	-3708.28
0.9547,0.0453	-3710.13
0.9623,0.0377	-3709.65
0.9900,0.0100	-3707.98
0.9931,0.0069	-3707.79
0.9784,0.0216	-3708.66
0.9828,0.0172	-3708.40
0.9462,0.0538	-3710.67
0.9564,0.0436	-3710.02
0.9920,0.0080	-3707.86
0.9913,0.0087	-3707.90
0.9752,0.0248	-3708.86
0.9788,0.0212	-3708.64
0.9541,0.0459	-3710.17
0.9626,0.0374	-3709.63
0.9936,0.0064	-3707.76
0.9917,0.0083	-3707.87
0.9775,0.0225	-3708.72
0.9803,0.0197	-3708.55
0.9520,0.0480	-3710.30
0.9599,0.0401	-3709.80
0.9937,0.0063	-3707.76
0.9927,0.0073	-3707.82
0.9808,0.0192	-3708.52
0.9755,0.0245	-3708.84
0.9677,0.0323	-3709.32
0.9558,0.0442	-3710.06
0.9932,0.0068	-3707.79
0.9931,0.0069	-3707.79
0.9808,0.0192	-3708.52
0.9679,0.0321	-3709.31
0.9656,0.0344	-3709.45
0.9614,0.0386	-3709.71
0.9920,0.0080	-3707.86
0.9915,0.0085	-3707.89
0.9851,0.0149	-3708.26
0.9680,0.0320	-3709.30
0.9659,0.0341	-3709.43
0.9611,0.0389	-3709.72
0.9925,0.0075	-3707.83
0.9937,0.0063	-3707.76
0.9872,0.0128	-3708.14
0.9689,0.0311	-3709.24
0.9638,0.0362	-3709.56
0.9604,0.0396	-3709.77
0.9938,0.0062	-3707.75
0.9933,0.0067	-3707.78
0.9881,0.0119	-3708.09
0.9726,0.0274	-3709.02
0.9625,0.0375	-3709.64
0.9553,0.0447	-3710.09
0.9949,0.0051	-3707.69
0.9945,0.0055	-3707.71
0.9893,0.0107	-3708.01
0.9706,0.0294	-3709.14
0.9657,0.0343	-3709.44
0.9477,0.0523	-3710.57
0.9946,0.0054	-3707.71
0.9931,0.0069	-3707.79
0.9873,0.0127	-3708.14
0.9682,0.0318	-3709.29
0.9733,0.0267	-3708.97
0.9581,0.0419	-3709.91
0.9942,0.0058	-3707.73
0.9930,0.0070	-3707.80
0.9875,0.0125	-3708.12
0.9594,0.0406	-3709.83
0.9739,0.0261	-3708.94
0.9684,0.0316	-3709.27
0.9917,0.0083	-3707.88
0.9911,0.0089	-3707.91
0.9879,0.0121	-3708.10
0.9584,0.0416	-3709.90
0.9703,0.0297	-3709.16
0.9722,0.0278	-3709.04
0.9924,0.0076	-3707.83
0.9921,0.0079	-3707.85
0.9887,0.0113	-3708.05
0.9616,0.0384	-3709.69
0.9683,0.0317	-3709.28
0.9729,0.0271	-3709.00
0.9925,0.0075	-3707.83
0.9932,0.0068	-3707.79
0.9895,0.0105	-3708.01
0.9584,0.0416	-3709.90
0.9717,0.0283	-3709.07
0.9720,0.0280	-3709.05
0.9940,0.0060	-3707.74
0.9922,0.0078	-3707.84
0.9881,0.0119	-3708.09
0.9491,0.0509	-3710.48
0.9755,0.0245	-3708.84
0.9743,0.0257	-3708.91
0.9934,0.0066	-3707.77
0.9912,0.0088	-3707.91
0.9876,0.0124	-3708.12
0.9389,0.0611	-3711.14
0.9783,0.0217	-3708.67
0.9797,0.0203	-3708.58
0.9912,0.0088	-3707.91
0.9885,0.0115	-3708.06
0.9920,0.0080	-3707.85
0.9322,0.0678	-3711.58
0.9781,0.0219	-3708.69
0.9811,0.0189	-3708.50
0.9913,0.0087	-3707.90
0.9876,0.0124	-3708.12
0.9941,0.0059	-3707.73
0.9318,0.0682	-3711.61
0.9798,0.0202	-3708.58
0.9807,0.0193	-3708.53
0.9911,0.0089	-3707.91
0.9879,0.0121	-3708.10
0.9940,0.0060	-3707.74
0.9396,0.0604	-3711.10
0.9833,0.0167	-3708.37
0.9790,0.0210	-3708.63
0.9906,0.0094	-3707.94
0.9898,0.0102	-3707.98
0.9925,0.0075	-3707.83
0.9387,0.0613	-3711.16
0.9844,0.0156	-3708.30
0.9804,0.0196	-3708.54
0.9884,0.0116	-3708.07
0.9909,0.0091	-3707.92
0.9937,0.0063	-3707.76
0.9460,0.0540	-3710.68
0.9812,0.0188	-3708.50
0.9798,0.0202	-3708.58
0.9851,0.0149	-3708.26
0.9912,0.0088	-3707.91
0.9926,0.0074	-3707.82
0.9519,0.0481	-3710.31
0.9837,0.0163	-3708.35
0.9778,0.0222	-3708.70
0.9879,0.0121	-3708.10
0.9893,0.0107	-3708.01
0.9934,0.0066	-3707.78
0.9520,0.0480	-3710.30
0.9799,0.0201	-3708.57
0.9767,0.0233	-3708.77
0.9915,0.0085	-3707.89
0.9888,0.0112	-3708.04
0.9937,0.0063	-3707.76
0.9508,0.0492	-3710.37
0.9797,0.0203	-3708.59
0.9784,0.0216	-3708.67
0.9906,0.0094	-3707.94
0.9885,0.0115	-3708.07
0.9943,0.0057	-3707.73
0.9533,0.0467	-3710.22
0.9797,0.0203	-3708.59
0.9766,0.0234	-3708.77
0.9906,0.0094	-3707.94
0.9875,0.0125	-3708.12
0.9950,0.0050	-3707.68
0.9596,0.0404	-3709.82
0.9755,0.0245	-3708.84
0.9699,0.0301	-3709.18
0.9910,0.0090	-3707.91
0.9851,0.0149	-3708.26
0.9946,0.0054	-3707.70
0.9667,0.0333	-3709.38
0.9799,0.0201	-3708.57
0.9650,0.0350	-3709.48
0.9914,0.0086	-3707.89
0.9817,0.0183	-3708.47
0.9949,0.0051	-3707.69
0.9658,0.0342	-3709.43
0.9834,0.0166	-3708.37
0.9695,0.0305	-3709.21
0.9946,0.0054	-3707.71
0.9825,0.0175	-3708.42
0.9953,0.0047	-3707.66
0.9664,0.0336	-3709.40
0.9826,0.0174	-3708.42
0.9652,0.0348	-3709.47
0.9956,0.0044	-3707.65
0.9824,0.0176	-3708.43
0.9951,0.0049	-3707.67
0.9708,0.0292	-3709.13
0.9817,0.0183	-3708.47
0.9636,0.0364	-3709.57
0.9955,0.0045	-3707.65
0.9801,0.0199	-3708.56
0.9938,0.0062	-3707.75
0.9751,0.0249	-3708.86
0.9845,0.0155	-3708.30
0.9655,0.0345	-3709.46
0.9955,0.0045	-3707.65
0.9750,0.0250	-3708.87
0.9934,0.0066	-3707.77
0.9822,0.0178	-3708.44
0.9852,0.0148	-3708.26
0.9744,0.0256	-3708.91
0.9955,0.0045	-3707.65
0.9728,0.0272	-3709.00
0.9935,0.0065	-3707.77
0.9856,0.0144	-3708.23
0.9857,0.0143	-3708.23
0.9756,0.0244	-3708.83
0.9961,0.0039	-3707.62
0.9772,0.0228	-3708.74
0.9939,0.0061	-3707.75
0.9849,0.0151	-3708.27
0.9819,0.0181	-3708.45
0.9790,0.0210	-3708.63
0.9957,0.0043	-3707.64
0.9832,0.0168	-3708.38
0.9948,0.0052	-3707.69
0.9834,0.0166	-3708.36
0.9856,0.0144	-3708.23
0.9786,0.0214	-3708.66
0.9960,0.0040	-3707.62
0.9829,0.0171	-3708.40
0.9955,0.0045	-3707.65
0.9858,0.0142	-3708.22
0.9859,0.0141	-3708.22
0.9784,0.0216	-3708.67
0.9962,0.0038	-3707.61
0.9843,0.0157	-3708.31
0.9957,0.0043	-3707.64
0.9898,0.0102	-3707.99
0.9856,0.0144	-3708.23
0.9740,0.0260	-3708.93
0.9951,0.0049	-3707.68
0.9845,0.0155	-3708.30
0.9960,0.0040	-3707.62
0.9892,0.0108	-3708.02
0.9823,0.0177	-3708.43
0.9683,0.0317	-3709.28
0.9946,0.0054	-3707.71
0.9858,0.0142	-3708.22
0.9962,0.0038	-3707.61
0.9900,0.0100	-3707.98
0.9831,0.0169	-3708.38
0.9583,0.0417	-3709.90
0.9947,0.0053	-3707.70
0.9868,0.0132	-3708.17
0.9956,0.0044	-3707.65
0.9888,0.0112	-3708.05
0.9806,0.0194	-3708.53
0.9592,0.0408	-3709.84
0.9940,0.0060	-3707.74
0.9878,0.0122	-3708.10
0.9951,0.0049	-3707.68
0.9877,0.0123	-3708.11
0.9824,0.0176	-3708.43
0.9677,0.0323	-3709.32
0.9928,0.0072	-3707.81
0.9871,0.0129	-3708.14
0.9945,0.0055	-3707.71
0.9873,0.0127	-3708.13
0.9835,0.0165	-3708.36
0.9615,0.0385	-3709.70
0.9930,0.0070	-3707.80
0.9871,0.0129	-3708.14
0.9951,0.0049	-3707.68
0.9838,0.0162	-3708.34
0.9718,0.0282	-3709.06
0.9577,0.0423	-3709.94
0.9940,0.0060	-3707.74
0.9878,0.0122	-3708.10
0.9963,0.0037	-3707.61
0.9810,0.0190	-3708.51
0.9755,0.0245	-3708.84
0.9616,0.0384	-3709.70
0.9945,0.0055	-3707.71
0.9862,0.0138	-3708.20
0.9952,0.0048	-3707.67
0.9786,0.0214	-3708.65
0.9740,0.0260	-3708.93
0.9600,0.0400	-3709.79
0.9948,0.0052	-3707.69
0.9870,0.0130	-3708.15
0.9945,0.0055	-3707.71
0.9783,0.0217	-3708.67
0.9723,0.0277	-3709.03
0.9559,0.0441	-3710.05
0.9953,0.0047	-3707.67
0.9881,0.0119	-3708.09
0.9946,0.0054	-3707.70
0.9789,0.0211	-3708.63
0.9790,0.0210	-3708.63
0.9553,0.0447	-3710.09
0.9954,0.0046	-3707.66
0.9884,0.0116	-3708.07
0.9938,0.0062	-3707.75
0.9750,0.0250	-3708.87
0.9765,0.0235	-3708.78
0.9482,0.0518	-3710.54
0.9946,0.0054	-3707.71
0.9910,0.0090	-3707.91
0.9930,0.0070	-3707.80
0.9750,0.0250	-3708.87
0.9720,0.0280	-3709.05
0.9400,0.0600	-3711.07
0.9963,0.0037	-3707.61
0.9921,0.0079	-3707.85
0.9938,0.0062	-3707.75
0.9725,0.0275	-3709.03
0.9746,0.0254	-3708.90
0.9382,0.0618	-3711.18
0.9970,0.0030	-3707.56
0.9915,0.0085	-3707.89
0.9946,0.0054	-3707.71
0.9772,0.0228	-3708.74
0.9774,0.0226	-3708.73
0.9433,0.0567	-3710.86
0.9973,0.0027	-3707.55
0.9901,0.0099	-3707.97
0.9944,0.0056	-3707.71
0.9723,0.0277	-3709.04
0.9850,0.0150	-3708.27
0.9379,0.0621	-3711.21
0.9965,0.0035	-3707.60
0.9921,0.0079	-3707.85
0.9919,0.0081	-3707.86
0.9604,0.0396	-3709.77
0.9877,0.0123	-3708.11
0.9355,0.0645	-3711.36
0.9962,0.0038	-3707.61
0.9909,0.0091	-3707.92
0.9934,0.0066	-3707.78
0.9634,0.0366	-3709.58
0.9854,0.0146	-3708.24
0.9225,0.0775	-3712.23
0.9954,0.0046	-3707.66
0.9886,0.0114	-3708.06
0.9944,0.0056	-3707.72
0.9636,0.0364	-3709.57
0.9864,0.0136	-3708.19
0.9384,0.0616	-3711.17
0.9955,0.0045	-3707.65
0.9864,0.0136	-3708.19
0.9953,0.0047	-3707.66
0.9747,0.0253	-3708.89
0.9856,0.0144	-3708.23
0.9232,0.0768	-3712.18
0.9958,0.0042	-3707.64
0.9864,0.0136	-3708.19
0.9957,0.0043	-3707.64
0.9733,0.0267	-3708.97
0.9855,0.0145	-3708.24
0.9238,0.0762	-3712.14
0.9960,0.0040	-3707.62
0.9888,0.0112	-3708.04
0.9953,0.0047	-3707.66
0.9752,0.0248	-3708.86
0.9861,0.0139	-3708.21
0.9197,0.0803	-3712.42
0.9962,0.0038	-3707.61
0.9910,0.0090	-3707.92
0.9942,0.0058	-3707.73
0.9747,0.0253	-3708.89
0.9874,0.0126	-3708.13
0.9280,0.0720	-3711.86
0.9965,0.0035	-3707.59
0.9914,0.0086	-3707.89
0.9951,0.0049	-3707.68
0.9771,0.0229	-3708.74
0.9878,0.0122	-3708.10
0.9146,0.0854	-3712.76
0.9970,0.0030	-3707.57
0.9928,0.0072	-3707.81
0.9951,0.0049	-3707.67
0.9777,0.0223	-3708.71
0.9870,0.0130	-3708.15
0.9124,0.0876	-3712.92
0.9969,0.0031	-3707.57
0.9928,0.0072	-3707.81
0.9945,0.0055	-3707.71
0.9776,0.0224	-3708.72
0.9896,0.0104	-3708.00
0.9051,0.0949	-3713.42
0.9962,0.0038	-3707.61
0.9939,0.0061	-3707.75
0.9958,0.0042	-3707.63
0.9760,0.0240	-3708.81
0.9899,0.0101	-3707.98
0.8951,0.1049	-3714.13
0.9963,0.0037	-3707.60
0.9926,0.0074	-3707.82
0.9959,0.0041	-3707.63
0.9814,0.0186	-3708.49
0.9895,0.0105	-3708.01
0.9021,0.0979	-3713.63
0.9959,0.0041	-3707.63
0.9924,0.0076	-3707.83
0.9959,0.0041	-3707.63
0.9828,0.0172	-3708.40
0.9872,0.0128	-3708.14
0.9072,0.0928	-3713.28
0.9950,0.0050	-3707.68
0.9925,0.0075	-3707.83
0.9969,0.0031	-3707.57
0.9847,0.0153	-3708.29
0.9852,0.0148	-3708.26
0.9184,0.0816	-3712.51
0.9943,0.0057	-3707.72
0.9911,0.0089	-3707.91
0.9956,0.0044	-3707.65
0.9811,0.0189	-3708.51
0.9827,0.0173	-3708.41
0.9317,0.0683	-3711.61
0.9930,0.0070	-3707.80
0.9929,0.0071	-3707.80
0.9960,0.0040	-3707.62
0.9731,0.0269	-3708.99
0.9799,0.0201	-3708.57
0.9155,0.0845	-3712.70
0.9925,0.0075	-3707.83
0.9933,0.0067	-3707.78
0.9963,0.0037	-3707.60
0.9726,0.0274	-3709.02
0.9791,0.0209	-3708.63
0.9119,0.0881	-3712.95
0.9924,0.0076	-3707.83
0.9924,0.0076	-3707.83
0.9965,0.0035	-3707.60
0.9775,0.0225	-3708.72
0.9762,0.0238	-3708.80
0.9125,0.0875	-3712.91
0.9908,0.0092	-3707.93
0.9941,0.0059	-3707.74
0.9966,0.0034	-3707.59
0.9771,0.0229	-3708.74
0.9759,0.0241	-3708.82
0.9141,0.0859	-3712.80
0.9902,0.0098	-3707.96
0.9934,0.0066	-3707.77
0.9958,0.0042	-3707.63
0.9781,0.0219	-3708.68
0.9734,0.0266	-3708.97
0.9052,0.0948	-3713.42
0.9902,0.0098	-3707.96
0.9940,0.0060	-3707.74
0.9953,0.0047	-3707.66
0.9770,0.0230	-3708.75
0.9734,0.0266	-3708.97
0.9183,0.0817	-3712.51
0.9909,0.0091	-3707.92
0.9937,0.0063	-3707.76
0.9959,0.0041	-3707.63
0.9783,0.0217	-3708.67
0.9705,0.0295	-3709.14
0.9223,0.0777	-3712.24
0.9919,0.0081	-3707.86
0.9949,0.0051	-3707.69
0.9961,0.0039	-3707.62
0.9803,0.0197	-3708.55
0.9633,0.0367	-3709.59
0.9198,0.0802	-3712.41
0.9923,0.0077	-3707.84
0.9943,0.0057	-3707.72
0.9966,0.0034	-3707.59
0.9790,0.0210	-3708.63
0.9750,0.0250	-3708.87
0.9239,0.0761	-3712.13
0.9914,0.0086	-3707.89
0.9939,0.0061	-3707.75
0.9956,0.0044	-3707.65
0.9748,0.0252	-3708.88
0.9807,0.0193	-3708.53
0.9020,0.0980	-3713.64
0.9915,0.0085	-3707.89
0.9931,0.0069	-3707.79
0.9958,0.0042	-3707.63
0.9789,0.0211	-3708.64
0.9780,0.0220	-3708.69
0.9033,0.0967	-3713.55
0.9917,0.0083	-3707.88
0.9928,0.0072	-3707.81
0.9957,0.0043	-3707.64
0.9822,0.0178	-3708.44
0.9742,0.0258	-3708.92
0.9182,0.0818	-3712.52
0.9878,0.0122	-3708.10
0.9932,0.0068	-3707.79
0.9971,0.0029	-3707.56
0.9833,0.0167	-3708.37
0.9728,0.0272	-3709.01
0.9313,0.0687	-3711.64
0.9887,0.0113	-3708.05
0.9949,0.0051	-3707.69
0.9973,0.0027	-3707.55
0.9825,0.0175	-3708.42
0.9760,0.0240	-3708.81
0.9320,0.0680	-3711.60
0.9877,0.0123	-3708.11
0.9961,0.0039	-3707.62
0.9976,0.0024	-3707.53
0.9849,0.0151	-3708.28
0.9777,0.0223	-3708.71
0.9375,0.0625	-3711.23
0.9894,0.0106	-3708.01
0.9964,0.0036	-3707.60
0.9976,0.0024	-3707.53
0.9872,0.0128	-3708.14
0.9829,0.0171	-3708.40
0.9334,0.0666	-3711.50
0.9908,0.0092	-3707.93
0.9966,0.0034	-3707.59
0.9978,0.0022	-3707.52
0.9842,0.0158	-3708.32
0.9834,0.0166	-3708.37
0.9444,0.0556	-3710.79
0.9884,0.0116	-3708.07
0.9962,0.0038	-3707.61
0.9976,0.0024	-3707.53
0.9850,0.0150	-3708.27
0.9769,0.0231	-3708.75
0.9436,0.0564	-3710.84
0.9892,0.0108	-3708.02
0.9961,0.0039	-3707.62
0.9976,0.0024	-3707.53
0.9870,0.0130	-3708.15
0.9787,0.0213	-3708.65
0.9474,0.0526	-3710.59
0.9886,0.0114	-3708.06
0.9960,0.0040	-3707.63
0.9980,0.0020	-3707.51
0.9863,0.0137	-3708.19
0.9840,0.0160	-3708.33
0.9493,0.0507	-3710.47
0.9877,0.0123	-3708.11
0.9960,0.0040	-3707.62
0.9978,0.0022	-3707.52
0.9861,0.0139	-3708.20
0.9851,0.0149	-3708.27
0.9560,0.0440	-3710.05
0.9909,0.0091	-3707.92
0.9958,0.0042	-3707.64
0.9980,0.0020	-3707.51
0.9867,0.0133	-3708.17
0.9880,0.0120	-3708.09
0.9690,0.0310	-3709.24
0.9911,0.0089	-3707.91
0.9953,0.0047	-3707.66
0.9975,0.0025	-3707.54
0.9865,0.0135	-3708.18
0.9873,0.0127	-3708.13
0.9625,0.0375	-3709.64
0.9930,0.0070	-3707.80
0.9960,0.0040	-3707.62
0.9976,0.0024	-3707.53
0.9819,0.0181	-3708.45
0.9836,0.0164	-3708.35
0.9676,0.0324	-3709.32
0.9940,0.0060	-3707.74
0.9968,0.0032	-3707.58
0.9969,0.0031	-3707.57
0.9827,0.0173	-3708.41
0.9809,0.0191	-3708.51
0.9705,0.0295	-3709.15
0.9950,0.0050	-3707.68
0.9960,0.0040	-3707.62
0.9961,0.0039	-3707.62
0.9848,0.0152	-3708.28
0.9818,0.0182	-3708.46
0.9763,0.0237	-3708.79
0.9963,0.0037	-3707.60
0.9967,0.0033	-3707.58
0.9946,0.0054	-3707.70
0.9814,0.0186	-3708.49
0.9789,0.0211	-3708.64
0.9758,0.0242	-3708.83
0.9968,0.0032	-3707.58
0.9967,0.0033	-3707.58
0.9942,0.0058	-3707.73
0.9806,0.0194	-3708.54
0.9827,0.0173	-3708.41
0.9672,0.0328	-3709.35
0.9973,0.0027	-3707.55
0.9966,0.0034	-3707.59
0.9945,0.0055	-3707.71
0.9777,0.0223	-3708.71
0.9801,0.0199	-3708.57
0.9708,0.0292	-3709.13
0.9981,0.0019	-3707.50
0.9960,0.0040	-3707.62
0.9944,0.0056	-3707.72
0.9740,0.0260	-3708.93
0.9812,0.0188	-3708.50
0.9680,0.0320	-3709.30
0.9984,0.0016	-3707.48
0.9955,0.0045	-3707.65
0.9954,0.0046	-3707.66
0.9734,0.0266	-3708.97
0.9805,0.0195	-3708.54
0.9631,0.0369	-3709.60
0.9984,0.0016	-3707.48
0.9957,0.0043	-3707.64
0.9928,0.0072	-3707.81
0.9763,0.0237	-3708.79
0.9807,0.0193	-3708.53
0.9691,0.0309	-3709.23
0.9981,0.0019	-3707.50
0.9954,0.0046	-3707.66
0.9911,0.0089	-3707.91
0.9770,0.0230	-3708.75
0.9816,0.0184	-3708.47
0.9651,0.0349	-3709.48
0.9985,0.0015	-3707.48
0.9948,0.0052	-3707.69
0.9903,0.0097	-3707.96
0.9722,0.0278	-3709.04
0.9832,0.0168	-3708.38
0.9688,0.0312	-3709.25
0.9983,0.0017	-3707.49
0.9937,0.0063	-3707.76
0.9894,0.0106	-3708.01
0.9749,0.0251	-3708.88
0.9820,0.0180	-3708.45
0.9683,0.0317	-3709.28
0.9979,0.0021	-3707.51
0.9948,0.0052	-3707.69
0.9892,0.0108	-3708.02
0.9696,0.0304	-3709.20
0.9785,0.0215	-3708.66
0.9679,0.0321	-3709.31
0.9979,0.0021	-3707.51
0.9941,0.0059	-3707.73
0.9892,0.0108	-3708.02
0.9727,0.0273	-3709.01
0.9788,0.0212	-3708.64
0.9679,0.0321	-3709.30
0.9979,0.0021	-3707.51
0.9939,0.0061	-3707.75
0.9900,0.0100	-3707.97
0.9731,0.0269	-3708.99
0.9782,0.0218	-3708.68
0.9663,0.0337	-3709.40
0.9976,0.0024	-3707.53
0.9941,0.0059	-3707.74
0.9872,0.0128	-3708.14
0.9670,0.0330	-3709.36
0.9762,0.0238	-3708.80
0.9677,0.0323	-3709.32
0.9981,0.0019	-3707.50
0.9951,0.0049	-3707.68
0.9883,0.0117	-3708.08
0.9640,0.0360	-3709.55
0.9726,0.0274	-3709.02
0.9664,0.0336	-3709.40
0.9983,0.0017	-3707.49
0.9957,0.0043	-3707.64
0.9899,0.0101	-3707.98
0.9635,0.0365	-3709.58
0.9732,0.0268	-3708.98
0.9614,0.0386	-3709.71
0.9981,0.0019	-3707.50
0.9958,0.0042	-3707.64
0.9895,0.0105	-3708.00
0.9658,0.0342	-3709.44
0.9685,0.0315	-3709.27
0.9640,0.0360	-3709.54
0.9982,0.0018	-3707.50
0.9965,0.0035	-3707.60
0.9912,0.0088	-3707.90
0.9601,0.0399	-3709.79
0.9781,0.0219	-3708.69
0.9655,0.0345	-3709.46
0.9982,0.0018	-3707.49
0.9957,0.0043	-3707.64
0.9937,0.0063	-3707.76
0.9581,0.0419	-3709.91
0.9822,0.0178	-3708.44
0.9629,0.0371	-3709.62
0.9983,0.0017	-3707.49
0.9960,0.0040	-3707.62
0.9942,0.0058	-3707.73
0.9563,0.0437	-3710.02
0.9845,0.0155	-3708.30
0.9582,0.0418	-3709.91
0.9983,0.0017	-3707.49
0.9960,0.0040	-3707.62
0.9939,0.0061	-3707.75
0.9630,0.0370	-3709.61
0.9837,0.0163	-3708.35
0.9608,0.0392	-3709.74
0.9986,0.0014	-3707.47
0.9948,0.0052	-3707.69
0.9930,0.0070	-3707.80
0.9509,0.0491	-3710.37
0.9835,0.0165	-3708.36
0.9669,0.0331	-3709.36
0.9986,0.0014	-3707.47
0.9951,0.0049	-3707.68
0.9924,0.0076	-3707.83
0.9613,0.0387	-3709.72
0.9833,0.0167	-3708.37
0.9651,0.0349	-3709.48
0.9984,0.0016	-3707.49
0.9951,0.0049	-3707.67
0.9934,0.0066	-3707.78
0.9548,0.0452	-3710.12
0.9848,0.0152	-3708.28
0.9712,0.0288	-3709.10
0.9979,0.0021	-3707.51
0.9958,0.0042	-3707.64
0.9929,0.0071	-3707.81
0.9549,0.0451	-3710.12
0.9857,0.0143	-3708.23
0.9733,0.0267	-3708.97
0.9977,0.0023	-3707.53
0.9953,0.0047	-3707.66
0.9940,0.0060	-3707.74
0.9590,0.0410	-3709.85
0.9879,0.0121	-3708.10
0.9728,0.0272	-3709.01
0.9974,0.0026	-3707.54
0.9954,0.0046	-3707.66
0.9937,0.0063	-3707.76
0.9605,0.0395	-3709.76
0.9854,0.0146	-3708.25
0.9759,0.0241	-3708.82
0.9974,0.0026	-3707.54
0.9969,0.0031	-3707.57
0.9943,0.0057	-3707.72
0.9648,0.0352	-3709.50
0.9869,0.0131	-3708.16
0.9776,0.0224	-3708.71
0.9973,0.0027	-3707.55
0.9969,0.0031	-3707.57
0.9948,0.0052	-3707.70
0.9681,0.0319	-3709.29
0.9858,0.0142	-3708.22
0.9792,0.0208	-3708.62
0.9961,0.0039	-3707.62
0.9966,0.0034	-3707.59
0.9956,0.0044	-3707.64
0.9614,0.0386	-3709.71
0.9881,0.0119	-3708.09
0.9800,0.0200	-3708.57
0.9965,0.0035	-3707.60
0.9970,0.0030	-3707.56
0.9954,0.0046	-3707.66
0.9672,0.0328	-3709.35
0.9885,0.0115	-3708.06
0.9794,0.0206	-3708.61
0.9968,0.0032	-3707.58
0.9972,0.0028	-3707.56
0.9952,0.0048	-3707.67
0.9738,0.0262	-3708.94
0.9859,0.0141	-3708.22
0.9863,0.0137	-3708.19
0.9967,0.0033	-3707.58
0.9971,0.0029	-3707.56
0.9954,0.0046	-3707.66
0.9778,0.0222	-3708.70
0.9853,0.0147	-3708.25
0.9875,0.0125	-3708.12
0.9971,0.0029	-3707.56
0.9965,0.0035	-3707.60
0.9951,0.0049	-3707.68
0.9784,0.0216	-3708.66
0.9864,0.0136	-3708.19
0.9845,0.0155	-3708.30
0.9953,0.0047	-3707.66
0.9963,0.0037	-3707.60
0.9944,0.0056	-3707.72
0.9825,0.0175	-3708.42
0.9844,0.0156	-3708.31
0.9847,0.0153	-3708.29
0.9938,0.0062	-3707.75
0.9967,0.0033	-3707.58
0.9948,0.0052	-3707.69
0.9842,0.0158	-3708.32
0.9841,0.0159	-3708.32
0.9877,0.0123	-3708.11
0.9953,0.0047	-3707.66
0.9973,0.0027	-3707.54
0.9956,0.0044	-3707.65
0.9816,0.0184	-3708.47
0.9840,0.0160	-3708.33
0.9888,0.0112	-3708.04
0.9957,0.0043	-3707.64
0.9980,0.0020	-3707.51
0.9953,0.0047	-3707.66
0.9854,0.0146	-3708.25
0.9860,0.0140	-3708.21
0.9898,0.0102	-3707.99
0.9951,0.0049	-3707.67
0.9981,0.0019	-3707.50
0.9957,0.0043	-3707.64
0.9849,0.0151	-3708.28
0.9874,0.0126	-3708.13
0.9894,0.0106	-3708.01
0.9956,0.0044	-3707.64
0.9983,0.0017	-3707.49
0.9966,0.0034	-3707.59
0.9830,0.0170	-3708.39
0.9868,0.0132	-3708.16
0.9918,0.0082	-3707.87
0.9941,0.0059	-3707.74
0.9986,0.0014	-3707.47
0.9960,0.0040	-3707.63
0.9834,0.0166	-3708.36
0.9853,0.0147	-3708.25
0.9934,0.0066	-3707.77
0.9938,0.0062	-3707.75
0.9986,0.0014	-3707.47
0.9960,0.0040	-3707.62
0.9833,0.0167	-3708.37
0.9832,0.0168	-3708.38
0.9930,0.0070	-3707.80
0.9947,0.0053	-3707.70
0.9981,0.0019	-3707.50
0.9962,0.0038	-3707.61
0.9843,0.0157	-3708.31
0.9796,0.0204	-3708.59
0.9933,0.0067	-3707.78
0.9952,0.0048	-3707.67
0.9988,0.0012	-3707.46
0.9962,0.0038	-3707.61
0.9826,0.0174	-3708.41
0.9823,0.0177	-3708.43
0.9928,0.0072	-3707.81
0.9949,0.0051	-3707.69
0.9990,0.0010	-3707.45
0.9962,0.0038	-3707.61
0.9837,0.0163	-3708.35
0.9841,0.0159	-3708.32
0.9937,0.0063	-3707.76
0.9950,0.0050	-3707.68
0.9989,0.0011	-3707.45
0.9963,0.0037	-3707.60
0.9819,0.0181	-3708.46
0.9843,0.0157	-3708.31
0.9920,0.0080	-3707.86
0.9960,0.0040	-3707.62
0.9990,0.0010	-3707.45
0.9961,0.0039	-3707.62
0.9802,0.0198	-3708.56
0.9838,0.0162	-3708.34
0.9934,0.0066	-3707.78
0.9967,0.0033	-3707.58
0.9988,0.0012	-3707.46
0.9966,0.0034	-3707.59
0.9830,0.0170	-3708.39
0.9871,0.0129	-3708.15
0.9942,0.0058	-3707.73
0.9955,0.0045	-3707.65
0.9985,0.0015	-3707.48
0.9971,0.0029	-3707.56
0.9875,0.0125	-3708.12
0.9862,0.0138	-3708.20
0.9928,0.0072	-3707.81
0.9958,0.0042	-3707.64
0.9985,0.0015	-3707.48
0.9968,0.0032	-3707.58
0.9861,0.0139	-3708.21
0.9852,0.0148	-3708.26
0.9919,0.0081	-3707.86
0.9942,0.0058	-3707.73
0.9985,0.0015	-3707.48
0.9969,0.0031	-3707.57
0.9829,0.0171	-3708.40
0.9862,0.0138	-3708.20
0.9915,0.0085	-3707.88
0.9920,0.0080	-3707.85
0.9985,0.0015	-3707.48
0.9969,0.0031	-3707.57
0.9840,0.0160	-3708.33
0.9833,0.0167	-3708.37
0.9918,0.0082	-3707.87
0.9920,0.0080	-3707.86
0.9980,0.0020	-3707.51
0.9967,0.0033	-3707.58
0.9801,0.0199	-3708.56
0.9795,0.0205	-3708.60
0.9897,0.0103	-3707.99
0.9926,0.0074	-3707.82
0.9981,0.0019	-3707.50
0.9960,0.0040	-3707.62
0.9768,0.0232	-3708.76
0.9745,0.0255	-3708.90
0.9927,0.0073	-3707.82
0.9932,0.0068	-3707.79
0.9978,0.0022	-3707.52
0.9965,0.0035	-3707.59
0.9733,0.0267	-3708.98
0.9803,0.0197	-3708.55
0.9913,0.0087	-3707.90
0.9940,0.0060	-3707.74
0.9979,0.0021	-3707.51
0.9958,0.0042	-3707.63
0.9790,0.0210	-3708.63
0.9820,0.0180	-3708.45
0.9929,0.0071	-3707.80
0.9930,0.0070	-3707.80
0.9980,0.0020	-3707.51
0.9961,0.0039	-3707.62
0.9781,0.0219	-3708.68
0.9852,0.0148	-3708.26
0.9932,0.0068	-3707.79
0.9926,0.0074	-3707.82
0.9981,0.0019	-3707.50
0.9971,0.0029	-3707.56
0.9793,0.0207	-3708.61
0.9823,0.0177	-3708.43
0.9913,0.0087	-3707.90
0.9926,0.0074	-3707.82
0.9980,0.0020	-3707.51
0.9968,0.0032	-3707.58
0.9809,0.0191	-3708.51
0.9819,0.0181	-3708.45
0.9922,0.0078	-3707.85
0.9928,0.0072	-3707.81
0.9980,0.0020	-3707.51
0.9963,0.0037	-3707.60
0.9737,0.0263	-3708.95
0.9787,0.0213	-3708.65
0.9935,0.0065	-3707.77
0.9941,0.0059	-3707.73
0.9973,0.0027	-3707.54
0.9964,0.0036	-3707.60
0.9740,0.0260	-3708.93
0.9767,0.0233	-3708.77
0.9941,0.0059	-3707.73
0.9942,0.0058	-3707.73
0.9976,0.0024	-3707.53
0.9969,0.0031	-3707.57
0.9681,0.0319	-3709.29
0.9738,0.0262	-3708.95
0.9941,0.0059	-3707.73
0.9930,0.0070	-3707.80
0.9976,0.0024	-3707.53
0.9971,0.0029	-3707.56
0.9593,0.0407	-3709.84
0.9698,0.0302	-3709.19
0.9935,0.0065	-3707.77
0.9924,0.0076	-3707.84
0.9976,0.0024	-3707.53
0.9962,0.0038	-3707.61
0.9612,0.0388	-3709.72
0.9671,0.0329	-3709.36
0.9918,0.0082	-3707.87
0.9931,0.0069	-3707.80
0.9964,0.0036	-3707.60
0.9951,0.0049	-3707.68
0.9542,0.0458	-3710.16
0.9638,0.0362	-3709.56
0.9933,0.0067	-3707.78
0.9925,0.0075	-3707.83
0.9969,0.0031	-3707.57
0.9955,0.0045	-3707.65
0.9507,0.0493	-3710.38
0.9721,0.0279	-3709.05
0.9931,0.0069	-3707.79
0.9925,0.0075	-3707.83
0.9971,0.0029	-3707.56
0.9961,0.0039	-3707.62
0.9477,0.0523	-3710.57
0.9714,0.0286	-3709.09
0.9927,0.0073	-3707.81
0.9935,0.0065	-3707.77
0.9967,0.0033	-3707.58
0.9953,0.0047	-3707.66
0.9471,0.0529	-3710.61
0.9739,0.0261	-3708.94
0.9925,0.0075	-3707.83
0.9916,0.0084	-3707.88
0.9968,0.0032	-3707.58
0.9940,0.0060	-3707.74
0.9534,0.0466	-3710.21
0.9690,0.0310	-3709.24
0.9937,0.0063	-3707.76
0.9932,0.0068	-3707.79
0.9967,0.0033	-3707.58
0.9959,0.0041	-3707.63
0.9565,0.0435	-3710.01
0.9713,0.0287	-3709.10
0.9938,0.0062	-3707.75
0.9929,0.0071	-3707.80
0.9969,0.0031	-3707.57
0.9956,0.0044	-3707.64
0.9597,0.0403	-3709.81
0.9696,0.0304	-3709.20
0.9949,0.0051	-3707.69
0.9929,0.0071	-3707.80
0.9969,0.0031	-3707.57
0.9961,0.0039	-3707.61
0.9484,0.0516	-3710.53
0.9747,0.0253	-3708.89
0.9948,0.0052	-3707.69
0.9929,0.0071	-3707.81
0.9960,0.0040	-3707.62
0.9969,0.0031	-3707.57
0.9388,0.0612	-3711.15
0.9727,0.0273	-3709.01
0.9951,0.0049	-3707.68
0.9921,0.0079	-3707.85
0.9956,0.0044	-3707.65
0.9973,0.0027	-3707.55
0.9401,0.0599	-3711.06
0.9690,0.0310	-3709.23
0.9951,0.0049	-3707.68
0.9916,0.0084	-3707.88
0.9949,0.0051	-3707.69
0.9975,0.0025	-3707.54
0.9529,0.0471	-3710.24
0.9714,0.0286	-3709.09
0.9935,0.0065	-3707.77
0.9915,0.0085	-3707.89
0.9958,0.0042	-3707.64
0.9976,0.0024	-3707.53
0.9595,0.0405	-3709.83
0.9601,0.0399	-3709.79
0.9946,0.0054	-3707.70
0.9907,0.0093	-3707.93
0.9949,0.0051	-3707.69
0.9967,0.0033	-3707.58
0.9661,0.0339	-3709.42
0.9613,0.0387	-3709.71
0.9951,0.0049	-3707.67
0.9889,0.0111	-3708.04
0.9950,0.0050	-3707.68
0.9962,0.0038	-3707.61
0.9567,0.0433	-3710.00
0.9595,0.0405	-3709.83
0.9953,0.0047	-3707.67
0.9863,0.0137	-3708.20
0.9956,0.0044	-3707.65
0.9964,0.0036	-3707.60
0.9564,0.0436	-3710.02
0.9630,0.0370	-3709.61
0.9956,0.0044	-3707.65
0.9859,0.0141	-3708.21
0.9935,0.0065	-3707.77
0.9963,0.0037	-3707.61
0.9432,0.0568	-3710.86
0.9580,0.0420	-3709.92
0.9964,0.0036	-3707.60
0.9863,0.0137	-3708.20
0.9929,0.0071	-3707.80
0.9962,0.0038	-3707.61
0.9411,0.0589	-3711.00
0.9567,0.0433	-3710.00
0.9962,0.0038	-3707.61
0.9843,0.0157	-3708.31
0.9938,0.0062	-3707.75
0.9951,0.0049	-3707.67
0.9371,0.0629	-3711.26
0.9567,0.0433	-3710.00
0.9967,0.0033	-3707.58
0.9772,0.0228	-3708.74
0.9943,0.0057	-3707.72
0.9938,0.0062	-3707.75
0.9389,0.0611	-3711.14
0.9596,0.0404	-3709.82
0.9970,0.0030	-3707.57
0.9744,0.0256	-3708.91
0.9929,0.0071	-3707.80
0.9938,0.0062	-3707.75
0.9286,0.0714	-3711.82
0.9661,0.0339	-3709.42
0.9974,0.0026	-3707.54
0.9788,0.0212	-3708.64
0.9918,0.0082	-3707.87
0.9945,0.0055	-3707.71
0.9157,0.0843	-3712.69
0.9597,0.0403	-3709.81
0.9971,0.0029	-3707.56
0.9825,0.0175	-3708.42
0.9925,0.0075	-3707.83
0.9931,0.0069	-3707.79
0.9307,0.0693	-3711.68
0.9536,0.0464	-3710.20
0.9973,0.0027	-3707.55
0.9839,0.0161	-3708.34
0.9927,0.0073	-3707.81
0.9937,0.0063	-3707.76
0.9359,0.0641	-3711.34
0.9490,0.0510	-3710.49
0.9979,0.0021	-3707.51
0.9855,0.0145	-3708.24
0.9939,0.0061	-3707.75
0.9935,0.0065	-3707.77
0.9431,0.0569	-3710.87
0.9643,0.0357	-3709.53
0.9975,0.0025	-3707.54
0.9842,0.0158	-3708.32
0.9922,0.0078	-3707.84
0.9929,0.0071	-3707.80
0.9406,0.0594	-3711.03
0.9673,0.0327	-3709.34
0.9969,0.0031	-3707.57
0.9836,0.0164	-3708.35
0.9920,0.0080	-3707.86
0.9925,0.0075	-3707.83
0.9279,0.0721	-3711.87
0.9687,0.0313	-3709.25
0.9962,0.0038	-3707.61
0.9829,0.0171	-3708.40
0.9916,0.0084	-3707.88
0.9923,0.0077	-3707.84
0.9364,0.0636	-3711.30
0.9644,0.0356	-3709.52
0.9961,0.0039	-3707.62
0.9810,0.0190	-3708.51
0.9876,0.0124	-3708.12
0.9930,0.0070	-3707.80
0.9251,0.0749	-3712.05
0.9597,0.0403	-3709.82
0.9963,0.0037	-3707.61
0.9814,0.0186	-3708.49
0.9882,0.0118	-3708.08
0.9932,0.0068	-3707.78
0.9217,0.0783	-3712.28
0.9597,0.0403	-3709.81
0.9965,0.0035	-3707.59
0.9803,0.0197	-3708.55
0.9852,0.0148	-3708.26
0.9916,0.0084	-3707.88
0.9231,0.0769	-3712.19
0.9557,0.0443	-3710.07
0.9961,0.0039	-3707.62
0.9796,0.0204	-3708.60
0.9869,0.0131	-3708.16
0.9922,0.0078	-3707.84
0.9296,0.0704	-3711.75
0.9545,0.0455	-3710.14
0.9962,0.0038	-3707.61
0.9707,0.0293	-3709.13
0.9841,0.0159	-3708.32
0.9924,0.0076	-3707.84
0.9325,0.0675	-3711.56
0.9523,0.0477	-3710.28
0.9958,0.0042	-3707.64
0.9742,0.0258	-3708.92
0.9865,0.0135	-3708.18
0.9928,0.0072	-3707.81
0.9200,0.0800	-3712.40
0.9568,0.0432	-3709.99
0.9962,0.0038	-3707.61
0.9676,0.0324	-3709.32
0.9884,0.0116	-3708.07
0.9930,0.0070	-3707.80
0.9182,0.0818	-3712.52
0.9648,0.0352	-3709.50
0.9959,0.0041	-3707.63
0.9747,0.0253	-3708.89
0.9877,0.0123	-3708.11
0.9906,0.0094	-3707.94
0.9142,0.0858	-3712.79
0.9698,0.0302	-3709.19
0.9951,0.0049	-3707.68
0.9731,0.0269	-3708.99
0.9875,0.0125	-3708.12
0.9914,0.0086	-3707.89
0.9189,0.0811	-3712.47
0.9682,0.0318	-3709.29
0.9945,0.0055	-3707.71
0.9808,0.0192	-3708.52
0.9878,0.0122	-3708.10
0.9905,0.0095	-3707.95
0.9371,0.0629	-3711.26
0.9645,0.0355	-3709.51
0.9921,0.0079	-3707.85
0.9722,0.0278	-3709.04
0.9850,0.0150	-3708.27
0.9883,0.0117	-3708.07
0.9481,0.0519	-3710.55
0.9650,0.0350	-3709.48
0.9933,0.0067	-3707.78
0.9777,0.0223	-3708.71
0.9861,0.0139	-3708.21
0.9878,0.0122	-3708.10
0.9505,0.0495	-3710.39
0.9642,0.0358	-3709.53
0.9917,0.0083	-3707.87
0.9803,0.0197	-3708.55
0.9871,0.0129	-3708.15
0.9895,0.0105	-3708.00
0.9529,0.0471	-3710.24
0.9641,0.0359	-3709.54
0.9930,0.0070	-3707.80
0.9793,0.0207	-3708.61
0.9897,0.0103	-3707.99
0.9891,0.0109	-3708.03
0.9596,0.0404	-3709.82
0.9689,0.0311	-3709.24
0.9920,0.0080	-3707.86
0.9813,0.0187	-3708.49
0.9906,0.0094	-3707.94
0.9903,0.0097	-3707.96
0.9557,0.0443	-3710.07
0.9602,0.0398	-3709.78
0.9927,0.0073	-3707.82
0.9833,0.0167	-3708.37
0.9896,0.0104	-3708.00
0.9896,0.0104	-3708.00
0.9628,0.0372	-3709.62
0.9656,0.0344	-3709.45
0.9902,0.0098	-3707.97
0.9794,0.0206	-3708.61
0.9893,0.0107	-3708.02
0.9878,0.0122	-3708.11
0.9632,0.0368	-3709.60
0.9713,0.0287	-3709.09
0.9907,0.0093	-3707.93
0.9778,0.0222	-3708.70
0.9891,0.0109	-3708.03
0.9834,0.0166	-3708.36
0.9654,0.0346	-3709.46
0.9705,0.0295	-3709.15
0.9920,0.0080	-3707.86
0.9749,0.0251	-3708.88
0.9915,0.0085	-3707.89
0.9813,0.0187	-3708.49
0.9667,0.0333	-3709.38
0.9784,0.0216	-3708.67
0.9930,0.0070	-3707.80
0.9785,0.0215	-3708.66
0.9899,0.0101	-3707.98
0.9820,0.0180	-3708.45
0.9719,0.0281	-3709.06
0.9776,0.0224	-3708.71
0.9946,0.0054	-3707.71
0.9737,0.0263	-3708.95
0.9880,0.0120	-3708.09
0.9781,0.0219	-3708.69
0.9700,0.0300	-3709.17
0.9686,0.0314	-3709.26
0.9950,0.0050	-3707.68
0.9798,0.0202	-3708.58
0.9856,0.0144	-3708.23
0.9779,0.0221	-3708.70
0.9634,0.0366	-3709.59
0.9688,0.0312	-3709.25
0.9952,0.0048	-3707.67
0.9797,0.0203	-3708.59
0.9842,0.0158	-3708.32
0.9816,0.0184	-3708.47
0.9680,0.0320	-3709.30
0.9718,0.0282	-3709.07
0.9946,0.0054	-3707.71
0.9799,0.0201	-3708.58
0.9840,0.0160	-3708.33
0.9822,0.0178	-3708.44
0.9687,0.0313	-3709.26
0.9733,0.0267	-3708.97
0.9950,0.0050	-3707.68
0.9817,0.0183	-3708.47
0.9835,0.0165	-3708.36
0.9821,0.0179	-3708.44
0.9671,0.0329	-3709.36
0.9680,0.0320	-3709.30
0.9967,0.0033	-3707.59
0.9836,0.0164	-3708.35
0.9848,0.0152	-3708.28
0.9835,0.0165	-3708.36
0.9703,0.0297	-3709.16
0.9730,0.0270	-3709.00
0.9971,0.0029	-3707.56
0.9865,0.0135	-3708.18
0.9854,0.0146	-3708.25
0.9832,0.0168	-3708.38
0.9788,0.0212	-3708.64
0.9745,0.0255	-3708.90
0.9974,0.0026	-3707.54
0.9833,0.0167	-3708.37
0.9853,0.0147	-3708.25
0.9793,0.0207	-3708.61
0.9814,0.0186	-3708.49
0.9777,0.0223	-3708.71
0.9973,0.0027	-3707.55
0.9823,0.0177	-3708.43
0.9838,0.0162	-3708.35
0.9740,0.0260	-3708.93
0.9698,0.0302	-3709.19
0.9796,0.0204	-3708.60
0.9973,0.0027	-3707.55
0.9843,0.0157	-3708.31
0.9847,0.0153	-3708.29
0.9759,0.0241	-3708.81
0.9672,0.0328	-3709.35
0.9825,0.0175	-3708.42
0.9968,0.0032	-3707.58
0.9828,0.0172	-3708.40
0.9816,0.0184	-3708.48
0.9758,0.0242	-3708.82
0.9725,0.0275	-3709.02
0.9849,0.0151	-3708.28
0.9963,0.0037	-3707.60
0.9821,0.0179	-3708.44
0.9788,0.0212	-3708.64
0.9760,0.0240	-3708.81
0.9729,0.0271	-3709.00
0.9847,0.0153	-3708.29
0.9964,0.0036	-3707.60
0.9844,0.0156	-3708.31
0.9806,0.0194	-3708.53
0.9786,0.0214	-3708.65
0.9676,0.0324	-3709.32
0.9816,0.0184	-3708.47
0.9965,0.0035	-3707.59
0.9836,0.0164	-3708.36
0.9750,0.0250	-3708.87
0.9766,0.0234	-3708.77
0.9781,0.0219	-3708.69
0.9803,0.0197	-3708.55
0.9960,0.0040	-3707.62
0.9872,0.0128	-3708.14
0.9766,0.0234	-3708.78
0.9779,0.0221	-3708.70
0.9745,0.0255	-3708.90
0.9804,0.0196	-3708.55
0.9968,0.0032	-3707.58
0.9891,0.0109	-3708.03
0.9769,0.0231	-3708.76
0.9688,0.0312	-3709.25
0.9808,0.0192	-3708.52
0.9835,0.0165	-3708.36
0.9966,0.0034	-3707.59
0.9887,0.0113	-3708.05
0.9750,0.0250	-3708.87
0.9671,0.0329	-3709.35
0.9794,0.0206	-3708.61
0.9842,0.0158	-3708.32
0.9973,0.0027	-3707.55
0.9917,0.0083	-3707.87
0.9802,0.0198	-3708.56
0.9657,0.0343	-3709.44
0.9846,0.0154	-3708.30
0.9837,0.0163	-3708.35
0.9975,0.0025	-3707.54
0.9920,0.0080	-3707.85
0.9787,0.0213	-3708.65
0.9653,0.0347	-3709.47
0.9798,0.0202	-3708.58
0.9846,0.0154	-3708.29
0.9974,0.0026	-3707.54
0.9941,0.0059	-3707.73
0.9806,0.0194	-3708.53
0.9531,0.0469	-3710.23
0.9778,0.0222	-3708.70
0.9810,0.0190	-3708.51
0.9976,0.0024	-3707.53
0.9927,0.0073	-3707.81
0.9793,0.0207	-3708.61
0.9492,0.0508	-3710.48
0.9800,0.0200	-3708.57
0.9783,0.0217	-3708.67
0.9977,0.0023	-3707.52
0.9922,0.0078	-3707.84
0.9811,0.0189	-3708.51
0.9538,0.0462	-3710.18
0.9768,0.0232	-3708.76
0.9815,0.0185	-3708.48
0.9984,0.0016	-3707.48
0.9934,0.0066	-3707.78
0.9866,0.0134	-3708.18
0.9551,0.0449	-3710.10
0.9762,0.0238	-3708.80
0.9793,0.0207	-3708.61
0.9983,0.0017	-3707.49
0.9938,0.0062	-3707.75
0.9859,0.0141	-3708.22
0.9524,0.0476	-3710.27
0.9723,0.0277	-3709.04
0.9788,0.0212	-3708.64
0.9986,0.0014	-3707.47
0.9920,0.0080	-3707.86
0.9884,0.0116	-3708.07
0.9563,0.0437	-3710.03
0.9736,0.0264	-3708.96
0.9809,0.0191	-3708.52
0.9984,0.0016	-3707.49
0.9925,0.0075	-3707.83
0.9903,0.0097	-3707.96
0.9598,0.0402	-3709.81
0.9717,0.0283	-3709.07
0.9857,0.0143	-3708.23
0.9984,0.0016	-3707.48
0.9916,0.0084	-3707.88
0.9905,0.0095	-3707.94
0.9699,0.0301	-3709.18
0.9783,0.0217	-3708.67
0.9849,0.0151	-3708.28
0.9983,0.0017	-3707.49
0.9916,0.0084	-3707.88
0.9892,0.0108	-3708.02
0.9667,0.0333	-3709.38
0.9738,0.0262	-3708.94
0.9806,0.0194	-3708.53
0.9986,0.0014	-3707.47
0.9921,0.0079	-3707.85
0.9898,0.0102	-3707.98
0.9755,0.0245	-3708.84
0.9706,0.0294	-3709.14
0.9829,0.0171	-3708.39
0.9986,0.0014	-3707.47
0.9890,0.0110	-3708.03
0.9891,0.0109	-3708.03
0.9768,0.0232	-3708.77
0.9747,0.0253	-3708.89
0.9816,0.0184	-3708.47
0.9987,0.0013	-3707.47
0.9867,0.0133	-3708.17
0.9896,0.0104	-3708.00
0.9711,0.0289	-3709.11
0.9745,0.0255	-3708.90
0.9812,0.0188	-3708.50
0.9986,0.0014	-3707.47
0.9869,0.0131	-3708.16
0.9896,0.0104	-3708.00
0.9639,0.0361	-3709.55
0.9717,0.0283	-3709.07
0.9836,0.0164	-3708.36
0.9986,0.0014	-3707.47
0.9861,0.0139	-3708.20
0.9904,0.0096	-3707.95
0.9651,0.0349	-3709.48
0.9680,0.0320	-3709.30
0.9848,0.0152	-3708.28
0.9990,0.0010	-3707.45
0.9842,0.0158	-3708.32
0.9900,0.0100	-3707.98
0.9668,0.0332	-3709.37
0.9729,0.0271	-3709.00
0.9854,0.0146	-3708.25
0.9992,0.0008	-3707.44
0.9858,0.0142	-3708.22
0.9900,0.0100	-3707.97
0.9719,0.0281	-3709.06
0.9753,0.0247	-3708.85
0.9838,0.0162	-3708.34
0.9992,0.0008	-3707.44
0.9919,0.0081	-3707.86
0.9916,0.0084	-3707.88
0.9803,0.0197	-3708.55
0.9763,0.0237	-3708.79
0.9882,0.0118	-3708.08
0.9990,0.0010	-3707.45
0.9924,0.0076	-3707.83
0.9921,0.0079	-3707.85
0.9806,0.0194	-3708.53
0.9722,0.0278	-3709.04
0.9918,0.0082	-3707.87
0.9988,0.0012	-3707.46
0.9943,0.0057	-3707.72
0.9922,0.0078	-3707.85
0.9767,0.0233	-3708.77
0.9721,0.0279	-3709.05
0.9918,0.0082	-3707.87
0.9987,0.0013	-3707.47
0.9948,0.0052	-3707.69
0.9927,0.0073	-3707.82
0.9752,0.0248	-3708.86
0.9743,0.0257	-3708.92
0.9905,0.0095	-3707.95
0.9980,0.0020	-3707.51
0.9958,0.0042	-3707.63
0.9930,0.0070	-3707.80
0.9692,0.0308	-3709.22
0.9713,0.0287	-3709.10
0.9887,0.0113	-3708.05
0.9976,0.0024	-3707.53
0.9961,0.0039	-3707.62
0.9934,0.0066	-3707.77
0.9670,0.0330	-3709.36
0.9712,0.0288	-3709.10
0.9886,0.0114	-3708.06
0.9975,0.0025	-3707.53
0.9961,0.0039	-3707.62
0.9936,0.0064	-3707.77
0.9697,0.0303	-3709.19
0.9724,0.0276	-3709.03
0.9873,0.0127	-3708.13
0.9979,0.0021	-3707.52
0.9962,0.0038	-3707.61
0.9940,0.0060	-3707.74
0.9740,0.0260	-3708.93
0.9697,0.0303	-3709.20
0.9879,0.0121	-3708.10
0.9978,0.0022	-3707.52
0.9966,0.0034	-3707.59
0.9943,0.0057	-3707.72
0.9737,0.0263	-3708.95
0.9686,0.0314	-3709.26
0.9874,0.0126	-3708.13
0.9982,0.0018	-3707.49
0.9961,0.0039	-3707.62
0.9953,0.0047	-3707.67
0.9753,0.0247	-3708.85
0.9641,0.0359	-3709.54
0.9894,0.0106	-3708.01
0.9980,0.0020	-3707.51
0.9952,0.0048	-3707.67
0.9948,0.0052	-3707.69
0.9797,0.0203	-3708.59
0.9566,0.0434	-3710.01
0.9893,0.0107	-3708.01
0.9985,0.0015	-3707.48
0.9960,0.0040	-3707.62
0.9949,0.0051	-3707.69
0.9759,0.0241	-3708.82
0.9533,0.0467	-3710.21
0.9872,0.0128	-3708.14
0.9982,0.0018	-3707.49
0.9954,0.0046	-3707.66
0.9938,0.0062	-3707.75
0.9753,0.0247	-3708.86
0.9517,0.0483	-3710.32
0.9904,0.0096	-3707.95
0.9977,0.0023	-3707.53
0.9953,0.0047	-3707.66
0.9946,0.0054	-3707.71
0.9758,0.0242	-3708.82
0.9401,0.0599	-3711.07
0.9893,0.0107	-3708.02
0.9977,0.0023	-3707.52
0.9953,0.0047	-3707.66
0.9950,0.0050	-3707.68
0.9766,0.0234	-3708.78
0.9556,0.0444	-3710.07
0.9935,0.0065	-3707.77
0.9969,0.0031	-3707.57
0.9955,0.0045	-3707.65
0.9958,0.0042	-3707.63
0.9807,0.0193	-3708.53
0.9559,0.0441	-3710.05
0.9930,0.0070	-3707.80
0.9979,0.0021	-3707.51
0.9946,0.0054	-3707.71
0.9962,0.0038	-3707.61
0.9778,0.0222	-3708.70
0.9561,0.0439	-3710.04
0.9936,0.0064	-3707.76
0.9981,0.0019	-3707.50
0.9943,0.0057	-3707.72
0.9960,0.0040	-3707.62
0.9787,0.0213	-3708.65
0.9474,0.0526	-3710.59
0.9933,0.0067	-3707.78
0.9977,0.0023	-3707.52
0.9940,0.0060	-3707.74
0.9948,0.0052	-3707.69
0.9812,0.0188	-3708.50
0.9511,0.0489	-3710.35
0.9945,0.0055	-3707.71
0.9983,0.0017	-3707.49
0.9939,0.0061	-3707.75
0.9952,0.0048	-3707.67
0.9822,0.0178	-3708.44
0.9474,0.0526	-3710.59
0.9940,0.0060	-3707.74
0.9977,0.0023	-3707.53
0.9949,0.0051	-3707.69
0.9955,0.0045	-3707.65
0.9792,0.0208	-3708.62
0.9331,0.0669	-3711.52
0.9937,0.0063	-3707.75
0.9977,0.0023	-3707.53
0.9949,0.0051	-3707.69
0.9965,0.0035	-3707.59
0.9819,0.0181	-3708.45
0.9364,0.0636	-3711.31
0.9937,0.0063	-3707.76
0.9973,0.0027	-3707.55
0.9935,0.0065	-3707.77
0.9965,0.0035	-3707.60
0.9829,0.0171	-3708.39
0.9330,0.0670	-3711.53
0.9930,0.0070	-3707.80
0.9974,0.0026	-3707.54
0.9936,0.0064	-3707.76
0.9957,0.0043	-3707.64
0.9807,0.0193	-3708.53
0.9480,0.0520	-3710.56
0.9905,0.0095	-3707.94
0.9971,0.0029	-3707.56
0.9939,0.0061	-3707.75
0.9941,0.0059	-3707.73
0.9833,0.0167	-3708.37
0.9527,0.0473	-3710.25
0.9897,0.0103	-3707.99
0.9974,0.0026	-3707.54
0.9942,0.0058	-3707.73
0.9928,0.0072	-3707.81
0.9858,0.0142	-3708.22
0.9655,0.0345	-3709.46
0.9898,0.0102	-3707.99
0.9969,0.0031	-3707.57
0.9945,0.0055	-3707.71
0.9922,0.0078	-3707.84
0.9813,0.0187	-3708.49
0.9761,0.0239	-3708.80
0.9885,0.0115	-3708.07
0.9971,0.0029	-3707.56
0.9943,0.0057	-3707.72
0.9942,0.0058	-3707.73
0.9771,0.0229	-3708.75
0.9815,0.0185	-3708.48
0.9911,0.0089	-3707.91
0.9971,0.0029	-3707.56
0.9946,0.0054	-3707.70
0.9947,0.0053	-3707.70
0.9719,0.0281	-3709.06
0.9794,0.0206	-3708.60
0.9898,0.0102	-3707.99
0.9971,0.0029	-3707.56
0.9947,0.0053	-3707.70
0.9959,0.0041	-3707.63
0.9775,0.0225	-3708.72
0.9795,0.0205	-3708.60
0.9901,0.0099	-3707.97
0.9973,0.0027	-3707.55
0.9950,0.0050	-3707.68
0.9949,0.0051	-3707.69
0.9814,0.0186	-3708.49
0.9814,0.0186	-3708.49
0.9905,0.0095	-3707.95
0.9972,0.0028	-3707.55
0.9959,0.0041	-3707.63
0.9951,0.0049	-3707.68
0.9812,0.0188	-3708.50
0.9808,0.0192	-3708.52
0.9924,0.0076	-3707.84
0.9972,0.0028	-3707.55
0.9945,0.0055	-3707.71
0.9948,0.0052	-3707.69
0.9825,0.0175	-3708.42
0.9816,0.0184	-3708.47
0.9928,0.0072	-3707.81
0.9973,0.0027	-3707.55
0.9945,0.0055	-3707.71
0.9950,0.0050	-3707.68
0.9783,0.0217	-3708.67
0.9805,0.0195	-3708.54
0.9913,0.0087	-3707.90
0.9973,0.0027	-3707.55
0.9946,0.0054	-3707.70
0.9951,0.0049	-3707.68
0.9789,0.0211	-3708.64
0.9779,0.0221	-3708.69
0.9913,0.0087	-3707.90
0.9968,0.0032	-3707.58
0.9951,0.0049	-3707.68
0.9958,0.0042	-3707.63
0.9783,0.0217	-3708.67
0.9798,0.0202	-3708.58
0.9902,0.0098	-3707.96
0.9963,0.0037	-3707.61
0.9944,0.0056	-3707.72
0.9946,0.0054	-3707.71
0.9796,0.0204	-3708.59
0.9790,0.0210	-3708.63
0.9905,0.0095	-3707.95
0.9970,0.0030	-3707.56
0.9941,0.0059	-3707.73
0.9944,0.0056	-3707.71
0.9820,0.0180	-3708.45
0.9819,0.0181	-3708.45
0.9900,0.0100	-3707.97
0.9975,0.0025	-3707.53
0.9945,0.0055	-3707.71
0.9943,0.0057	-3707.72
0.9855,0.0145	-3708.24
0.9838,0.0162	-3708.34
0.9897,0.0103	-3707.99
0.9972,0.0028	-3707.55
0.9928,0.0072	-3707.81
0.9933,0.0067	-3707.78
0.9869,0.0131	-3708.16
0.9843,0.0157	-3708.31
0.9906,0.0094	-3707.94
0.9978,0.0022	-3707.52
0.9903,0.0097	-3707.96
0.9941,0.0059	-3707.73
0.9899,0.0101	-3707.98
0.9835,0.0165	-3708.36
0.9888,0.0112	-3708.05
0.9980,0.0020	-3707.51
0.9881,0.0119	-3708.09
0.9943,0.0057	-3707.72
0.9903,0.0097	-3707.96
0.9839,0.0161	-3708.34
0.9881,0.0119	-3708.08
0.9984,0.0016	-3707.49
0.9880,0.0120	-3708.09
0.9934,0.0066	-3707.78
0.9912,0.0088	-3707.90
0.9853,0.0147	-3708.25
0.9909,0.0091	-3707.92
0.9983,0.0017	-3707.49
0.9896,0.0104	-3708.00
0.9924,0.0076	-3707.83
0.9918,0.0082	-3707.87
0.9864,0.0136	-3708.19
0.9901,0.0099	-3707.97
0.9984,0.0016	-3707.49
0.9895,0.0105	-3708.00
0.9909,0.0091	-3707.92
0.9923,0.0077	-3707.84
0.9867,0.0133	-3708.17
0.9858,0.0142	-3708.22
0.9983,0.0017	-3707.49
0.9913,0.0087	-3707.90
0.9929,0.0071	-3707.80
0.9910,0.0090	-3707.92
0.9875,0.0125	-3708.12
0.9869,0.0131	-3708.16
0.9986,0.0014	-3707.47
