#isoforms=['ENSG00000101294.SE.1.A.up_ENSG00000101294.SE.1.A.SE1_ENSG00000101294.SE.1.A.dn','ENSG00000101294.SE.1.B.up_ENSG00000101294.SE.1.B.dn']	exon_lens=('ENSG00000101294.SE.1.A.up',99),('ENSG00000101294.SE.1.A.SE1',376),('ENSG00000101294.SE.1.A.dn',89),('ENSG00000101294.SE.1.B.up',99),('ENSG00000101294.SE.1.B.dn',89)	iters=5000	burn_in=500	lag=10	percent_accept=91.92	proposal_type=drift	counts=(0,0):20,(1,0):36,(1,1):66	assigned_counts=0:48,1:54	chrom=chr20	strand=+	mRNA_starts=31527484,31527484	mRNA_ends=31545035,31545035
sampled_psi	log_score
0.3586,0.6414	-659.73
0.2234,0.7766	-650.88
0.2659,0.7341	-658.39
0.2772,0.7228	-659.26
0.2330,0.7670	-650.85
0.2655,0.7345	-659.42
0.3097,0.6903	-652.06
0.1898,0.8102	-644.39
0.3386,0.6614	-654.40
0.2463,0.7537	-646.46
0.2628,0.7372	-651.21
0.2458,0.7542	-657.65
0.3185,0.6815	-658.62
0.2646,0.7354	-650.23
0.3421,0.6579	-655.26
0.2271,0.7729	-654.53
0.2720,0.7280	-648.49
0.2520,0.7480	-652.10
0.2671,0.7329	-658.38
0.2745,0.7255	-656.37
0.3225,0.6775	-660.92
0.2181,0.7819	-644.54
0.2973,0.7027	-654.90
0.2800,0.7200	-655.46
0.2489,0.7511	-652.07
0.2781,0.7219	-650.67
0.2655,0.7345	-653.31
0.2261,0.7739	-650.86
0.2715,0.7285	-656.36
0.2590,0.7410	-656.39
0.2454,0.7546	-650.93
0.2435,0.7565	-647.50
0.2620,0.7380	-653.27
0.2166,0.7834	-649.66
0.3082,0.6918	-650.37
0.3157,0.6843	-661.66
0.2610,0.7390	-640.76
0.2603,0.7397	-653.25
0.2964,0.7036	-662.65
0.2253,0.7747	-658.28
0.2720,0.7280	-652.43
0.2823,0.7177	-652.69
0.2304,0.7696	-647.23
0.2664,0.7336	-656.36
0.2314,0.7686	-653.25
0.2339,0.7661	-649.67
0.2957,0.7043	-653.12
0.2559,0.7441	-648.94
0.2306,0.7694	-643.62
0.2577,0.7423	-656.40
0.2563,0.7437	-660.67
0.2127,0.7873	-653.62
0.2644,0.7356	-655.34
0.2564,0.7436	-653.21
0.2112,0.7888	-654.98
0.2693,0.7307	-652.37
0.2468,0.7532	-662.10
0.1739,0.8261	-649.36
0.2516,0.7484	-651.00
0.2435,0.7565	-654.31
0.2106,0.7894	-644.43
0.2227,0.7773	-643.38
0.2286,0.7714	-658.15
0.2165,0.7835	-654.80
0.2520,0.7480	-652.10
0.2739,0.7261	-656.37
0.2531,0.7469	-652.11
0.2551,0.7449	-651.06
0.2267,0.7733	-654.54
0.2375,0.7625	-650.86
0.2526,0.7474	-658.61
0.2369,0.7631	-649.69
0.2832,0.7168	-652.71
0.2628,0.7372	-656.37
0.2003,0.7997	-651.28
0.1887,0.8113	-653.16
0.2719,0.7281	-654.39
0.2322,0.7678	-648.46
0.3268,0.6732	-655.17
0.2365,0.7635	-657.89
0.2067,0.7933	-641.70
0.2062,0.7938	-644.39
0.2868,0.7132	-659.20
0.2601,0.7399	-651.15
0.3158,0.6842	-663.98
0.2321,0.7679	-642.48
0.2342,0.7658	-655.59
0.2025,0.7975	-655.33
0.2761,0.7239	-658.31
0.2706,0.7294	-655.37
0.2969,0.7031	-661.78
0.2835,0.7165	-658.29
0.2326,0.7674	-654.43
0.2144,0.7856	-656.17
0.2851,0.7149	-655.53
0.2265,0.7735	-652.09
0.2571,0.7429	-656.40
0.2841,0.7159	-658.29
0.2407,0.7593	-655.48
0.2134,0.7866	-649.68
0.2466,0.7534	-646.47
0.2091,0.7909	-640.42
0.2799,0.7201	-655.46
0.2832,0.7168	-655.50
0.2377,0.7623	-652.03
0.2295,0.7705	-652.06
0.2540,0.7460	-645.65
0.2393,0.7607	-657.81
0.2804,0.7196	-651.69
0.2522,0.7478	-651.01
0.2369,0.7631	-648.52
0.2398,0.7602	-652.03
0.2769,0.7231	-650.63
0.2561,0.7439	-647.88
0.2958,0.7042	-651.39
0.2268,0.7732	-653.31
0.2264,0.7736	-652.09
0.2836,0.7164	-654.58
0.3001,0.6999	-657.51
0.2443,0.7557	-658.82
0.2908,0.7092	-659.19
0.2190,0.7810	-656.00
0.1997,0.8003	-648.52
0.2780,0.7220	-658.30
0.2747,0.7253	-657.34
0.2891,0.7109	-651.09
0.2560,0.7440	-651.08
0.2489,0.7511	-645.44
0.2415,0.7585	-652.03
0.2596,0.7404	-655.34
0.2939,0.7061	-655.68
0.2717,0.7283	-654.39
0.2993,0.7007	-651.55
0.2341,0.7659	-646.11
0.2355,0.7645	-659.10
0.2588,0.7412	-656.39
0.2787,0.7213	-653.54
0.2304,0.7696	-649.64
0.3025,0.6975	-654.21
0.2541,0.7459	-656.43
0.2550,0.7450	-652.13
0.2477,0.7523	-663.17
0.2172,0.7828	-650.93
0.2642,0.7358	-655.34
0.2790,0.7210	-658.30
0.2843,0.7157	-661.06
0.2483,0.7517	-656.50
0.2281,0.7719	-652.07
0.2082,0.7918	-651.08
0.2798,0.7202	-660.18
0.2400,0.7600	-649.73
0.2385,0.7615	-650.87
0.2294,0.7706	-647.22
0.2627,0.7373	-655.34
0.2084,0.7916	-643.07
0.2847,0.7153	-654.60
0.2395,0.7605	-650.87
0.2353,0.7647	-652.03
0.2670,0.7330	-656.36
0.2424,0.7576	-647.48
0.2079,0.7921	-648.41
0.2519,0.7481	-660.80
0.2744,0.7256	-651.51
0.2258,0.7742	-647.17
0.2717,0.7283	-654.39
0.2454,0.7546	-650.92
0.2338,0.7662	-642.54
0.1982,0.8018	-654.14
0.2792,0.7208	-646.91
0.2073,0.7927	-647.08
0.3005,0.6995	-657.52
0.2234,0.7766	-650.88
0.2378,0.7622	-649.70
0.2210,0.7790	-650.89
0.2389,0.7611	-646.24
0.2171,0.7829	-647.09
0.2996,0.7004	-658.36
0.2713,0.7287	-650.43
0.2567,0.7433	-655.34
0.2373,0.7627	-652.03
0.2243,0.7757	-649.63
0.2260,0.7740	-645.94
0.2803,0.7197	-657.35
0.2762,0.7238	-659.27
0.2685,0.7315	-656.36
0.2192,0.7808	-654.72
0.2052,0.7948	-651.15
0.2208,0.7792	-648.37
0.2610,0.7390	-657.42
0.3348,0.6652	-657.61
0.2424,0.7576	-656.59
0.2476,0.7524	-650.95
0.2133,0.7867	-653.60
0.2031,0.7969	-655.31
0.2747,0.7253	-651.52
0.2784,0.7216	-656.39
0.2324,0.7676	-658.02
0.2344,0.7656	-650.85
0.2619,0.7381	-651.19
0.2321,0.7679	-652.05
0.2859,0.7141	-651.88
0.2457,0.7543	-655.41
0.2616,0.7384	-655.34
0.2320,0.7680	-648.46
0.2532,0.7468	-651.03
0.2514,0.7486	-644.45
0.3152,0.6848	-658.56
0.2596,0.7404	-645.91
0.3202,0.6798	-654.13
0.2568,0.7432	-654.28
0.2212,0.7788	-657.19
0.2531,0.7469	-652.11
0.3205,0.6795	-660.91
0.2810,0.7190	-660.17
0.3825,0.6175	-662.61
0.2413,0.7587	-649.74
0.1960,0.8040	-648.59
0.2384,0.7616	-654.35
0.2939,0.7061	-661.82
0.2525,0.7475	-652.10
0.3670,0.6330	-661.13
0.2336,0.7664	-652.04
0.2103,0.7897	-643.10
0.2662,0.7338	-653.32
0.2653,0.7347	-656.36
0.2395,0.7605	-652.03
0.3251,0.6749	-663.13
0.2780,0.7220	-649.71
0.1854,0.8146	-653.33
0.2459,0.7541	-652.05
0.2592,0.7408	-656.39
0.1950,0.8050	-648.62
0.2817,0.7183	-652.67
0.2686,0.7314	-659.36
0.2185,0.7815	-657.29
0.2603,0.7397	-656.38
0.2356,0.7644	-653.21
0.1735,0.8265	-655.62
0.2922,0.7078	-657.42
0.2380,0.7620	-652.03
0.2530,0.7470	-646.69
0.2933,0.7067	-656.55
0.2419,0.7581	-653.18
0.2052,0.7948	-652.50
0.2776,0.7224	-657.34
0.2465,0.7535	-652.05
0.2482,0.7518	-657.61
0.2607,0.7393	-647.00
0.2318,0.7682	-659.24
0.2149,0.7851	-645.78
0.2829,0.7171	-657.36
0.2384,0.7616	-647.38
0.2291,0.7709	-652.07
0.2383,0.7617	-649.71
0.2714,0.7286	-656.36
0.2230,0.7770	-654.62
0.2352,0.7648	-644.96
0.2485,0.7515	-653.17
0.2122,0.7878	-651.01
0.1961,0.8039	-642.95
0.2698,0.7302	-654.37
0.2326,0.7674	-650.85
0.2865,0.7135	-662.85
0.2247,0.7753	-652.11
0.1926,0.8074	-641.51
0.1985,0.8015	-648.54
0.2576,0.7424	-654.28
0.2339,0.7661	-648.48
0.2896,0.7104	-653.81
0.2958,0.7042	-657.46
0.1908,0.8092	-638.61
0.2250,0.7750	-653.34
0.2755,0.7245	-656.38
0.2248,0.7752	-650.87
0.2745,0.7255	-647.62
0.2850,0.7150	-661.05
0.1585,0.8415	-638.61
0.2613,0.7387	-648.06
0.2554,0.7446	-655.35
0.2374,0.7626	-654.36
0.2666,0.7334	-662.43
0.2760,0.7240	-655.41
0.1749,0.8251	-643.11
0.2564,0.7436	-656.41
0.2624,0.7376	-652.24
0.2190,0.7810	-647.10
0.2404,0.7596	-653.18
0.3056,0.6944	-657.60
0.2178,0.7822	-650.93
0.2394,0.7606	-654.34
0.2242,0.7758	-649.63
0.2399,0.7601	-650.88
0.1748,0.8252	-646.21
0.3209,0.6791	-662.41
0.1843,0.8157	-644.46
0.2888,0.7112	-656.49
0.2722,0.7278	-657.35
0.2553,0.7447	-653.21
0.1817,0.8183	-647.51
0.3567,0.6433	-660.25
0.1673,0.8327	-646.50
0.2852,0.7148	-655.53
0.2525,0.7475	-651.02
0.3009,0.6991	-655.84
0.1660,0.8340	-644.95
0.4058,0.5942	-664.51
0.1447,0.8553	-653.25
0.2844,0.7156	-650.90
0.1957,0.8043	-651.43
0.2991,0.7009	-654.95
0.1928,0.8072	-642.94
0.4026,0.5974	-664.04
0.1600,0.8400	-651.84
0.2783,0.7217	-651.63
0.2042,0.7958	-653.89
0.2609,0.7391	-662.63
0.1849,0.8151	-647.42
0.3141,0.6859	-659.32
0.1901,0.8099	-648.74
0.2438,0.7562	-648.65
0.2159,0.7841	-653.53
0.1996,0.8004	-645.75
0.2199,0.7801	-652.17
0.2575,0.7425	-651.10
0.1628,0.8372	-640.17
0.2647,0.7353	-650.23
0.1889,0.8111	-644.40
0.2221,0.7779	-648.38
0.2590,0.7410	-649.03
0.2495,0.7505	-657.58
0.1878,0.8122	-647.34
0.2680,0.7320	-651.34
0.2183,0.7817	-645.82
0.2099,0.7901	-648.40
0.2946,0.7054	-653.08
0.2331,0.7669	-652.04
0.1722,0.8278	-643.16
0.2532,0.7468	-664.01
0.2355,0.7645	-652.03
0.2234,0.7766	-648.38
0.2604,0.7396	-655.34
0.2490,0.7510	-652.07
0.2158,0.7842	-650.95
0.2530,0.7470	-653.19
0.2406,0.7594	-647.43
0.2587,0.7413	-652.18
0.2760,0.7240	-651.56
0.2584,0.7416	-651.12
0.1910,0.8090	-637.17
0.2184,0.7816	-652.20
0.2021,0.7979	-653.98
0.2800,0.7200	-655.46
0.2944,0.7056	-655.70
0.2199,0.7801	-659.77
0.2297,0.7703	-648.43
0.2282,0.7718	-647.20
0.1906,0.8094	-642.94
0.2856,0.7144	-657.37
0.2920,0.7080	-650.34
0.2301,0.7699	-652.06
0.2369,0.7631	-649.69
0.1914,0.8086	-642.94
0.2077,0.7923	-641.72
0.2686,0.7314	-653.35
0.3078,0.6922	-657.64
0.2281,0.7719	-653.29
0.2651,0.7349	-652.28
0.2014,0.7986	-642.98
0.2120,0.7880	-640.51
0.2843,0.7157	-651.82
0.3053,0.6947	-657.59
0.2220,0.7780	-657.16
0.2648,0.7352	-645.13
0.2086,0.7914	-649.74
0.2106,0.7894	-652.36
0.2972,0.7028	-660.92
0.3050,0.6950	-657.59
0.1988,0.8012	-644.36
0.2848,0.7152	-662.89
0.1950,0.8050	-647.20
0.2594,0.7406	-646.94
0.3245,0.6755	-658.74
0.2791,0.7209	-657.35
0.2408,0.7592	-653.18
0.2323,0.7677	-650.85
0.1905,0.8095	-651.62
0.2746,0.7254	-652.49
0.3127,0.6873	-656.16
0.2697,0.7303	-653.37
0.2298,0.7702	-649.64
0.2269,0.7731	-647.18
0.1858,0.8142	-650.35
0.2591,0.7409	-655.34
0.3010,0.6990	-658.37
0.3182,0.6818	-658.61
0.2306,0.7694	-652.05
0.2090,0.7910	-652.40
0.2096,0.7904	-655.04
0.2677,0.7323	-655.35
0.2599,0.7401	-653.24
0.3210,0.6790	-652.67
0.2054,0.7946	-652.50
0.2267,0.7733	-647.18
0.2198,0.7802	-648.37
0.2885,0.7115	-655.58
0.2240,0.7760	-650.87
0.2912,0.7088	-657.41
0.2184,0.7816	-648.37
0.2422,0.7578	-656.60
0.2301,0.7699	-652.06
0.2970,0.7030	-659.20
0.2255,0.7745	-649.63
0.2879,0.7121	-653.76
0.2140,0.7860	-647.08
0.2535,0.7465	-649.95
0.2417,0.7583	-657.75
0.2958,0.7042	-654.86
0.2375,0.7625	-650.86
0.3361,0.6639	-661.74
0.2265,0.7735	-645.95
0.2338,0.7662	-648.48
0.1985,0.8015	-649.94
0.3005,0.6995	-655.83
0.2217,0.7783	-649.63
0.3343,0.6657	-664.48
0.1762,0.8238	-643.08
0.2225,0.7775	-642.13
0.1879,0.8121	-657.59
0.3144,0.6856	-656.21
0.2293,0.7707	-653.28
0.3317,0.6683	-661.71
0.2037,0.7963	-648.46
0.2241,0.7759	-653.35
0.1980,0.8020	-648.55
0.3071,0.6929	-656.00
0.1990,0.8010	-637.39
0.3449,0.6551	-660.55
0.1890,0.8110	-641.49
0.2085,0.7915	-648.41
0.1806,0.8194	-643.01
0.3066,0.6934	-653.53
0.1558,0.8442	-643.74
0.2752,0.7248	-651.53
0.2217,0.7783	-657.17
0.2103,0.7897	-649.72
0.1518,0.8482	-640.50
0.2916,0.7084	-663.63
0.1603,0.8397	-651.82
0.3161,0.6839	-659.35
0.2252,0.7748	-644.69
0.1820,0.8180	-641.49
0.2148,0.7852	-657.45
0.3011,0.6989	-654.16
0.1621,0.8379	-650.04
0.3358,0.6642	-659.69
0.2047,0.7953	-649.80
0.1617,0.8383	-641.84
0.2134,0.7866	-653.60
0.3427,0.6573	-657.90
0.1815,0.8185	-653.54
0.3698,0.6302	-659.09
0.2071,0.7929	-649.76
0.1616,0.8384	-646.78
0.2013,0.7987	-649.87
0.3875,0.6125	-666.88
0.1548,0.8452	-648.88
0.3534,0.6466	-664.38
0.2189,0.7811	-645.83
0.1651,0.8349	-643.36
0.2179,0.7821	-653.48
0.4037,0.5963	-664.46
0.1740,0.8260	-646.24
0.3540,0.6460	-663.17
0.2032,0.7968	-643.00
0.1600,0.8400	-641.89
0.2207,0.7793	-645.85
0.3610,0.6390	-659.24
0.1725,0.8275	-647.86
0.3681,0.6319	-660.63
0.2205,0.7795	-652.16
0.1590,0.8410	-645.26
0.2173,0.7827	-661.19
0.3193,0.6807	-656.36
0.1716,0.8284	-646.33
0.2967,0.7033	-651.43
0.1907,0.8093	-638.60
0.1674,0.8326	-656.13
0.2074,0.7926	-644.40
0.2951,0.7049	-656.58
0.1710,0.8290	-643.19
0.2795,0.7205	-655.45
0.2250,0.7750	-644.68
0.1572,0.8428	-647.03
0.2139,0.7861	-644.47
0.2833,0.7167	-652.72
0.1838,0.8162	-642.98
0.3166,0.6834	-657.81
0.2479,0.7521	-647.62
0.1920,0.8080	-638.63
0.1953,0.8047	-648.61
0.2731,0.7269	-661.26
0.1993,0.8007	-647.14
0.2499,0.7501	-647.68
0.2549,0.7451	-648.91
0.1767,0.8233	-639.99
0.2075,0.7925	-652.44
0.2033,0.7967	-649.83
0.2654,0.7346	-649.24
0.2467,0.7533	-654.29
0.2580,0.7420	-656.39
0.1664,0.8336	-638.49
0.1906,0.8094	-650.17
0.2114,0.7886	-651.02
0.2721,0.7279	-650.46
0.2460,0.7540	-649.81
0.2570,0.7430	-650.03
0.1643,0.8357	-638.51
0.2071,0.7929	-648.42
0.1950,0.8050	-634.44
0.2782,0.7218	-654.48
0.2476,0.7524	-648.73
0.2165,0.7835	-653.52
0.1821,0.8179	-649.00
0.2179,0.7821	-647.09
0.1957,0.8043	-651.43
0.3133,0.6867	-653.03
0.2720,0.7280	-649.47
0.2005,0.7995	-649.89
0.1860,0.8140	-650.34
0.2222,0.7778	-648.38
0.1868,0.8132	-654.72
0.3648,0.6352	-660.51
0.2856,0.7144	-660.12
0.1746,0.8254	-647.77
0.1879,0.8121	-653.19
0.2221,0.7779	-649.63
0.1935,0.8065	-655.79
0.3712,0.6288	-660.74
0.2843,0.7157	-659.21
0.1603,0.8397	-650.16
0.2059,0.7941	-647.08
0.2057,0.7943	-637.63
0.2104,0.7896	-653.69
0.3213,0.6787	-655.68
0.3027,0.6973	-653.38
0.1660,0.8340	-643.33
0.2314,0.7686	-655.65
0.2006,0.7994	-645.74
0.1761,0.8239	-647.71
0.2721,0.7279	-657.35
0.3179,0.6821	-654.79
0.1949,0.8051	-644.36
0.1817,0.8183	-653.53
0.2020,0.7980	-647.11
0.2064,0.7936	-645.74
0.2452,0.7548	-652.05
0.3256,0.6744	-658.03
0.1799,0.8201	-649.09
0.1999,0.8001	-644.36
0.1992,0.8008	-642.97
0.2388,0.7612	-654.35
0.2783,0.7217	-656.39
0.3693,0.6307	-659.60
0.1904,0.8096	-648.73
0.2014,0.7986	-647.12
0.2782,0.7218	-649.72
0.2355,0.7645	-655.57
0.2643,0.7357	-652.27
0.3500,0.6500	-660.67
0.2046,0.7954	-648.45
0.1872,0.8128	-648.83
0.2346,0.7654	-650.85
0.1919,0.8081	-648.69
0.2256,0.7744	-657.03
0.3144,0.6856	-660.89
0.2037,0.7963	-652.55
0.1891,0.8109	-651.68
0.2319,0.7681	-647.26
0.1947,0.8053	-644.36
0.2104,0.7896	-651.04
0.2992,0.7008	-652.40
0.2381,0.7619	-649.70
0.2020,0.7980	-658.10
0.2580,0.7420	-651.11
0.2257,0.7743	-650.86
0.1977,0.8023	-649.96
0.2504,0.7496	-648.79
0.2716,0.7284	-653.40
0.1814,0.8186	-646.01
0.2457,0.7543	-653.17
0.2249,0.7751	-645.92
0.1935,0.8065	-650.08
0.2658,0.7342	-650.27
0.2686,0.7314	-654.36
0.1817,0.8183	-639.99
0.2563,0.7437	-657.47
0.2168,0.7832	-650.94
0.1991,0.8009	-648.53
0.2702,0.7298	-654.37
0.2514,0.7486	-658.64
0.1717,0.8283	-652.62
0.2521,0.7479	-649.92
0.2331,0.7669	-647.28
0.2045,0.7955	-648.45
0.2579,0.7421	-658.51
0.2839,0.7161	-655.51
0.1812,0.8188	-647.53
0.2910,0.7090	-648.50
0.2461,0.7539	-653.17
0.2382,0.7618	-654.36
0.2451,0.7549	-653.17
0.2771,0.7229	-654.47
0.2089,0.7911	-649.74
0.2753,0.7247	-651.54
0.2203,0.7797	-648.37
0.2387,0.7613	-652.03
0.2409,0.7591	-654.33
0.2703,0.7297	-655.37
0.2252,0.7748	-653.34
0.3168,0.6832	-657.82
0.2337,0.7663	-642.54
0.2602,0.7398	-654.29
0.2170,0.7830	-652.22
0.2618,0.7382	-653.26
0.2236,0.7764	-647.14
0.3306,0.6694	-656.76
0.2474,0.7526	-650.95
0.2978,0.7022	-654.91
0.1887,0.8113	-648.78
0.2774,0.7226	-651.60
0.2288,0.7712	-649.64
0.3654,0.6346	-663.84
0.2430,0.7570	-646.35
0.2199,0.7801	-654.70
0.2194,0.7806	-652.18
0.2631,0.7369	-654.31
0.2581,0.7419	-654.28
0.3297,0.6703	-658.86
0.2783,0.7217	-654.49
0.1903,0.8097	-645.84
0.1865,0.8135	-642.96
0.2953,0.7047	-658.32
0.2482,0.7518	-642.09
0.3346,0.6654	-658.98
0.2763,0.7237	-656.38
0.1995,0.8005	-655.47
0.1700,0.8300	-640.05
0.2968,0.7032	-656.61
0.2656,0.7344	-647.21
0.2677,0.7323	-646.29
0.2088,0.7912	-648.41
0.2035,0.7965	-647.10
0.1399,0.8601	-642.90
0.2543,0.7457	-649.97
0.2150,0.7850	-649.67
0.3063,0.6937	-655.98
0.1852,0.8148	-640.00
0.2353,0.7647	-648.50
0.1786,0.8214	-650.67
0.2404,0.7596	-646.28
0.2450,0.7550	-647.54
0.3186,0.6814	-657.10
0.1802,0.8198	-647.56
0.2481,0.7519	-653.17
0.1701,0.8299	-643.22
0.2598,0.7402	-653.24
0.2256,0.7744	-653.33
0.3249,0.6751	-659.48
0.2017,0.7983	-652.62
0.2585,0.7415	-654.28
0.1591,0.8409	-640.26
0.2687,0.7313	-659.36
0.2161,0.7839	-648.37
0.2919,0.7081	-652.99
0.2409,0.7591	-649.74
0.2737,0.7263	-656.37
0.1619,0.8381	-645.12
0.2907,0.7093	-658.30
0.2198,0.7802	-648.37
0.2663,0.7337	-654.33
0.2559,0.7441	-657.48
0.3034,0.6966	-658.39
0.1784,0.8216	-649.15
0.2861,0.7139	-647.32
0.2423,0.7577	-656.60
0.2860,0.7140	-658.29
0.2513,0.7487	-656.46
0.2829,0.7171	-659.22
0.1725,0.8275	-647.86
0.3315,0.6685	-664.51
0.2079,0.7921	-644.40
0.3068,0.6932	-660.88
0.2478,0.7522	-656.50
0.2697,0.7303	-650.38
0.1572,0.8428	-650.39
0.3295,0.6705	-658.14
0.2402,0.7598	-650.88
0.2593,0.7407	-649.04
0.2559,0.7441	-654.28
0.2788,0.7212	-655.45
0.1513,0.8487	-647.42
0.3461,0.6539	-661.85
0.2219,0.7781	-650.89
0.2361,0.7639	-647.33
0.2761,0.7239	-651.56
0.2294,0.7706	-653.27
0.1538,0.8462	-640.42
0.3838,0.6162	-663.12
0.1884,0.8116	-642.95
0.2292,0.7708	-650.85
0.2863,0.7137	-658.29
0.2266,0.7734	-654.54
0.1465,0.8535	-644.25
0.3862,0.6138	-660.40
0.1853,0.8147	-653.33
0.2501,0.7499	-647.69
0.2891,0.7109	-660.09
0.2539,0.7461	-654.27
0.1279,0.8721	-647.71
0.4314,0.5686	-664.13
0.1690,0.8310	-648.02
0.2195,0.7805	-649.64
0.3232,0.6768	-663.88
0.2812,0.7188	-652.66
0.1236,0.8764	-642.35
0.3866,0.6134	-665.96
0.1586,0.8414	-640.27
0.2397,0.7603	-658.96
0.3562,0.6438	-660.83
0.2652,0.7348	-652.29
0.1521,0.8479	-637.05
0.3896,0.6104	-663.27
0.1382,0.8618	-635.69
0.2043,0.7957	-653.89
0.3117,0.6883	-653.75
0.2284,0.7716	-647.20
0.1797,0.8203	-646.06
0.4193,0.5807	-663.24
0.1731,0.8269	-643.14
0.1823,0.8177	-641.49
0.2976,0.7024	-658.34
0.2246,0.7754	-659.54
0.1760,0.8240	-649.26
0.4463,0.5537	-667.27
0.1857,0.8143	-659.22
0.1811,0.8189	-641.50
0.3125,0.6875	-664.82
0.2105,0.7895	-644.43
0.1692,0.8308	-644.83
0.3759,0.6241	-660.41
0.2213,0.7787	-647.12
0.1674,0.8326	-643.29
0.3616,0.6384	-663.25
0.2229,0.7771	-643.39
0.2216,0.7784	-644.61
0.3396,0.6604	-657.12
0.2210,0.7790	-652.15
0.1454,0.8546	-639.01
0.3090,0.6910	-658.46
0.2006,0.7994	-648.51
0.1820,0.8180	-646.00
0.3352,0.6648	-662.42
0.2473,0.7527	-649.83
0.1734,0.8266	-654.07
0.2967,0.7033	-655.74
0.1890,0.8110	-651.68
0.2105,0.7895	-653.68
0.3471,0.6529	-657.44
0.2609,0.7391	-656.38
0.1776,0.8224	-647.66
0.2451,0.7549	-654.30
0.2362,0.7638	-649.68
0.1968,0.8032	-652.80
0.2816,0.7184	-653.61
0.2655,0.7345	-651.27
0.1757,0.8243	-646.18
0.2085,0.7915	-652.41
0.2382,0.7618	-656.68
0.2374,0.7626	-657.87
0.2434,0.7566	-659.98
0.2457,0.7543	-648.68
0.1812,0.8188	-650.54
0.2057,0.7943	-651.14
0.2140,0.7860	-645.77
0.2435,0.7565	-655.44
0.2158,0.7842	-653.53
0.1923,0.8077	-650.12
0.2204,0.7796	-645.85
0.2132,0.7868	-648.38
0.2583,0.7417	-652.17
0.2285,0.7715	-650.85
0.1739,0.8261	-650.91
0.2080,0.7920	-649.75
0.2519,0.7481	-653.19
0.2148,0.7852	-644.48
0.2585,0.7415	-654.28
0.2249,0.7751	-647.15
0.2152,0.7848	-648.37
0.2221,0.7779	-647.13
0.2414,0.7586	-648.60
0.2348,0.7652	-653.22
0.2626,0.7374	-654.31
0.2147,0.7853	-649.67
0.2203,0.7797	-653.43
0.2034,0.7966	-647.10
0.2720,0.7280	-655.38
0.2171,0.7829	-645.81
0.3116,0.6884	-652.95
0.2144,0.7856	-657.47
0.2508,0.7492	-647.71
0.2040,0.7960	-641.65
0.2346,0.7654	-660.31
0.2049,0.7951	-663.36
0.2964,0.7036	-654.01
0.1982,0.8018	-647.15
0.2942,0.7058	-658.32
0.2196,0.7804	-647.10
0.2710,0.7290	-655.37
0.2081,0.7919	-651.09
0.3184,0.6816	-653.29
0.2131,0.7869	-653.61
0.2802,0.7198	-651.69
0.2168,0.7832	-647.09
0.2802,0.7198	-649.80
0.1922,0.8078	-648.68
0.3288,0.6712	-659.55
0.2353,0.7647	-657.93
0.2858,0.7142	-648.21
0.2463,0.7537	-655.41
0.2653,0.7347	-654.33
0.2136,0.7864	-654.90
0.2618,0.7382	-653.26
0.2519,0.7481	-648.83
0.2607,0.7393	-660.55
0.2398,0.7602	-658.95
0.2806,0.7194	-660.17
0.2163,0.7837	-644.51
0.3132,0.6868	-660.10
0.2199,0.7801	-653.44
0.2165,0.7835	-647.08
0.2501,0.7499	-653.18
0.2408,0.7592	-647.44
0.2406,0.7594	-652.03
0.2896,0.7104	-661.89
0.2373,0.7627	-648.53
0.2109,0.7891	-648.39
0.2364,0.7636	-648.51
0.2204,0.7796	-642.06
0.2303,0.7697	-647.23
0.2828,0.7172	-657.36
0.2854,0.7146	-650.03
0.1814,0.8186	-652.05
0.2432,0.7568	-649.77
0.2287,0.7713	-647.21
0.2392,0.7608	-663.60
0.2862,0.7138	-654.63
0.2471,0.7529	-653.17
0.1991,0.8009	-652.71
0.2151,0.7849	-650.96
0.1827,0.8173	-641.49
0.2187,0.7813	-653.46
0.2708,0.7292	-654.38
0.2203,0.7797	-650.90
0.2065,0.7935	-647.08
0.2203,0.7797	-653.43
0.2049,0.7951	-649.80
0.2419,0.7581	-649.75
0.2594,0.7406	-652.19
0.2013,0.7987	-647.12
0.2041,0.7959	-647.10
0.1840,0.8160	-644.47
0.2203,0.7797	-643.32
0.2512,0.7488	-655.37
0.2428,0.7572	-658.86
0.2071,0.7929	-647.08
0.1872,0.8128	-645.89
0.1939,0.8061	-644.37
0.2126,0.7874	-649.69
0.2760,0.7240	-654.45
0.2585,0.7415	-653.23
0.2193,0.7807	-657.26
0.2012,0.7988	-652.63
0.1872,0.8128	-657.64
0.2520,0.7480	-651.01
0.2792,0.7208	-652.60
0.2466,0.7534	-650.94
0.2164,0.7836	-654.80
0.1540,0.8460	-645.53
0.2310,0.7690	-650.85
0.2333,0.7667	-649.66
0.2248,0.7752	-647.15
0.2700,0.7300	-657.36
0.2060,0.7940	-649.78
0.1737,0.8263	-647.81
0.1998,0.8002	-647.13
0.2192,0.7808	-650.91
0.2432,0.7568	-642.96
0.2506,0.7494	-652.08
0.2163,0.7837	-647.08
0.1645,0.8355	-648.26
0.1861,0.8139	-638.53
0.2529,0.7471	-655.36
0.2914,0.7086	-655.64
0.2772,0.7228	-654.47
0.2684,0.7316	-656.36
0.1698,0.8302	-640.05
0.1538,0.8462	-650.65
0.2709,0.7291	-655.37
0.2946,0.7054	-653.95
0.3342,0.6658	-658.28
0.2594,0.7406	-655.34
0.2073,0.7927	-653.78
0.1441,0.8559	-647.97
0.2569,0.7431	-651.09
0.2852,0.7148	-648.18
0.3087,0.6913	-653.62
0.2231,0.7769	-658.36
0.2423,0.7577	-654.32
0.1459,0.8541	-647.83
0.2347,0.7653	-646.13
0.2519,0.7481	-655.36
0.2942,0.7058	-654.82
0.1970,0.8030	-640.14
0.2089,0.7911	-649.74
0.1549,0.8451	-647.17
0.2387,0.7613	-658.99
0.2363,0.7637	-657.90
0.2836,0.7164	-658.29
0.2635,0.7365	-655.34
0.1840,0.8160	-647.44
0.1843,0.8157	-642.97
0.2466,0.7534	-652.06
0.2748,0.7252	-649.58
0.2609,0.7391	-655.34
0.2763,0.7237	-643.86
0.2049,0.7951	-638.96
0.2302,0.7698	-649.64
0.2972,0.7028	-658.34
0.2769,0.7231	-654.46
0.2572,0.7428	-646.86
0.2846,0.7154	-659.21
0.2200,0.7800	-648.37
0.2054,0.7946	-641.68
0.3098,0.6902	-656.87
0.2697,0.7303	-656.36
0.3232,0.6768	-657.97
0.2384,0.7616	-660.16
0.1861,0.8139	-641.48
0.1660,0.8340	-644.95
0.2787,0.7213	-656.39
0.2358,0.7642	-652.03
0.3447,0.6553	-661.19
0.2216,0.7784	-653.40
0.1742,0.8258	-652.46
0.1902,0.8098	-648.74
0.3045,0.6955	-664.19
0.2362,0.7638	-654.38
0.3232,0.6768	-662.41
0.2523,0.7477	-652.10
0.1925,0.8075	-654.41
0.1714,0.8286	-654.21
0.2671,0.7329	-652.32
0.2642,0.7358	-648.17
0.3382,0.6618	-661.76
0.2283,0.7717	-647.20
0.2103,0.7897	-639.13
0.1914,0.8086	-650.15
0.3164,0.6836	-653.96
0.2824,0.7176	-649.89
0.3223,0.6777	-657.21
0.2010,0.7990	-656.78
0.2066,0.7934	-647.08
0.2167,0.7833	-649.66
0.3280,0.6720	-657.38
0.3180,0.6820	-658.61
0.3475,0.6525	-661.87
0.1711,0.8289	-652.66
0.2063,0.7937	-643.04
0.2460,0.7540	-664.37
0.3334,0.6666	-658.95
0.2760,0.7240	-648.66
0.3826,0.6174	-660.70
0.2006,0.7994	-648.51
0.2112,0.7888	-645.75
0.2856,0.7144	-658.29
0.3207,0.6793	-660.16
0.2497,0.7503	-652.08
0.3830,0.6170	-667.40
0.2239,0.7761	-647.14
0.1972,0.8028	-648.57
0.2791,0.7209	-652.60
0.2669,0.7331	-653.33
0.2428,0.7572	-650.90
0.3860,0.6140	-664.57
0.2342,0.7658	-649.67
0.2090,0.7910	-655.06
0.3183,0.6817	-660.14
0.2691,0.7309	-659.36
0.2329,0.7671	-647.27
0.3939,0.6061	-662.53
0.2084,0.7916	-648.41
0.2066,0.7934	-649.77
0.2897,0.7103	-655.61
0.2075,0.7925	-653.78
0.2436,0.7564	-658.84
0.2823,0.7177	-658.29
0.1710,0.8290	-649.51
0.2309,0.7691	-648.44
0.2793,0.7207	-646.92
0.2296,0.7704	-648.43
0.2484,0.7516	-650.96
0.2654,0.7346	-655.34
0.1760,0.8240	-643.08
0.2543,0.7457	-654.27
0.2824,0.7176	-659.22
0.2415,0.7585	-655.47
0.2404,0.7596	-657.78
0.2823,0.7177	-656.42
0.1691,0.8309	-649.61
0.2386,0.7614	-650.87
0.2694,0.7306	-652.37
0.2337,0.7663	-659.16
0.1966,0.8034	-645.77
0.3186,0.6814	-657.10
0.2037,0.7963	-648.46
0.2210,0.7790	-650.89
0.2479,0.7521	-644.30
0.2395,0.7605	-647.41
0.2005,0.7995	-641.59
0.2728,0.7272	-650.48
0.2156,0.7844	-648.37
0.2430,0.7570	-647.49
0.2246,0.7754	-645.91
0.2607,0.7393	-659.51
0.2299,0.7701	-661.73
0.2448,0.7552	-653.17
0.2082,0.7918	-652.42
0.2423,0.7577	-652.04
0.2454,0.7546	-655.42
0.2169,0.7831	-658.64
0.2811,0.7189	-654.53
0.2215,0.7785	-654.66
0.2606,0.7394	-656.38
0.2232,0.7768	-645.89
0.2626,0.7374	-651.21
0.2399,0.7601	-650.88
0.2784,0.7216	-664.96
0.2050,0.7950	-649.80
0.3179,0.6821	-664.71
0.2904,0.7096	-652.94
0.2487,0.7513	-656.49
0.2182,0.7818	-643.27
0.3094,0.6906	-653.65
0.2060,0.7940	-640.34
0.3212,0.6788	-658.67
0.2866,0.7134	-653.73
0.2653,0.7347	-651.27
0.2244,0.7756	-644.67
0.2373,0.7627	-654.37
0.2194,0.7806	-644.56
0.3185,0.6815	-654.05
0.2813,0.7187	-658.29
0.2657,0.7343	-652.30
0.2061,0.7939	-648.43
0.2219,0.7781	-652.14
0.2103,0.7897	-658.98
0.3465,0.6535	-658.05
0.3231,0.6769	-658.71
0.2718,0.7282	-652.42
0.2018,0.7982	-642.99
0.2416,0.7584	-656.61
0.1797,0.8203	-643.02
0.3065,0.6935	-656.80
0.3209,0.6791	-652.67
0.2540,0.7460	-657.51
0.1675,0.8325	-649.70
0.2457,0.7543	-656.54
0.1619,0.8381	-645.12
0.3193,0.6807	-654.85
0.3392,0.6608	-657.77
0.2295,0.7705	-649.64
0.1944,0.8056	-651.47
0.2483,0.7517	-655.39
0.1662,0.8338	-651.39
0.3075,0.6925	-658.44
0.3341,0.6659	-661.03
0.2264,0.7736	-649.63
0.1912,0.8088	-641.50
0.2804,0.7196	-650.75
0.1744,0.8256	-643.11
0.2973,0.7027	-655.76
0.2760,0.7240	-654.45
0.2867,0.7133	-654.64
0.1858,0.8142	-656.26
0.3441,0.6559	-661.83
0.1837,0.8163	-653.42
0.2862,0.7138	-661.03
0.2148,0.7852	-650.97
0.3044,0.6956	-655.93
0.1838,0.8162	-638.50
0.3008,0.6992	-654.15
0.1711,0.8289	-641.61
0.2478,0.7522	-650.95
0.1835,0.8165	-639.99
0.2844,0.7156	-655.52
0.1774,0.8226	-641.52
0.3273,0.6727	-660.96
0.1950,0.8050	-655.71
0.2674,0.7326	-660.39
0.2082,0.7918	-647.08
0.2777,0.7223	-653.52
0.2105,0.7895	-648.39
0.3232,0.6768	-655.76
0.2163,0.7837	-647.08
0.2547,0.7453	-652.13
0.1978,0.8022	-651.36
0.3008,0.6992	-653.31
0.1978,0.8022	-658.36
0.3076,0.6924	-655.20
0.2178,0.7822	-647.09
0.2539,0.7461	-655.35
0.2425,0.7575	-646.34
0.2907,0.7093	-656.52
0.1992,0.8008	-640.18
0.3053,0.6947	-653.48
0.2399,0.7601	-645.11
0.2285,0.7715	-647.20
0.2416,0.7584	-650.89
0.2667,0.7333	-654.34
0.2236,0.7764	-649.63
0.2751,0.7249	-660.25
0.2592,0.7408	-652.19
0.2234,0.7766	-655.86
0.2402,0.7598	-652.03
0.2539,0.7461	-654.27
0.2256,0.7744	-645.93
0.2499,0.7501	-653.18
0.2778,0.7222	-658.30
0.2378,0.7622	-654.36
0.2211,0.7789	-655.93
0.2408,0.7592	-652.03
0.2178,0.7822	-658.60
0.2784,0.7216	-650.68
0.2978,0.7022	-652.34
0.2243,0.7757	-649.63
0.2144,0.7856	-649.67
0.2375,0.7625	-657.86
0.2134,0.7866	-645.77
0.3097,0.6903	-662.48
0.2851,0.7149	-651.85
0.2240,0.7760	-652.12
0.2738,0.7262	-656.37
0.2193,0.7807	-647.10
0.2302,0.7698	-655.68
0.3111,0.6889	-653.72
0.3079,0.6921	-663.31
0.1881,0.8119	-648.80
0.2675,0.7325	-656.36
0.2306,0.7694	-654.46
0.2097,0.7903	-651.05
0.3114,0.6886	-658.50
0.2727,0.7273	-660.29
0.2086,0.7914	-649.74
0.2462,0.7538	-661.00
0.2164,0.7836	-650.95
0.2172,0.7828	-644.52
0.3465,0.6535	-664.39
0.2561,0.7439	-648.94
0.2003,0.7997	-649.90
0.2609,0.7391	-655.34
0.2408,0.7592	-649.74
0.2442,0.7558	-652.04
0.3512,0.6488	-660.70
0.2964,0.7036	-654.87
0.2741,0.7259	-657.34
0.2595,0.7405	-653.24
0.2330,0.7670	-656.81
0.2385,0.7615	-656.67
0.3388,0.6612	-657.08
0.2332,0.7668	-647.28
0.2623,0.7377	-647.06
0.2354,0.7646	-648.50
0.2203,0.7797	-648.37
0.2492,0.7508	-653.18
0.3671,0.6329	-659.50
0.2353,0.7647	-654.39
0.2599,0.7401	-654.29
0.2798,0.7202	-653.57
0.1975,0.8025	-651.37
0.2490,0.7510	-653.18
0.3496,0.6504	-662.52
0.2095,0.7905	-647.07
0.2609,0.7391	-652.21
0.2841,0.7159	-654.59
0.1890,0.8110	-647.31
0.2355,0.7645	-659.10
0.3289,0.6711	-657.41
0.1909,0.8091	-644.39
0.2519,0.7481	-648.83
0.2587,0.7413	-654.28
0.2016,0.7984	-648.49
0.2281,0.7719	-648.42
0.2751,0.7249	-654.44
0.1965,0.8035	-647.18
0.3067,0.6933	-651.09
0.2945,0.7055	-656.57
0.2076,0.7924	-648.42
0.2818,0.7182	-646.12
0.2905,0.7095	-660.98
0.2152,0.7848	-649.67
0.3150,0.6850	-657.78
0.2682,0.7318	-653.35
0.1962,0.8038	-638.72
0.2628,0.7372	-652.24
0.2393,0.7607	-652.03
0.2696,0.7304	-658.35
0.2899,0.7101	-659.19
0.2660,0.7340	-653.32
0.1821,0.8179	-644.50
0.2878,0.7122	-655.57
0.2222,0.7778	-649.63
0.2728,0.7272	-656.37
0.2598,0.7402	-653.24
0.2583,0.7417	-656.39
0.1559,0.8441	-647.11
0.3056,0.6944	-656.78
0.2318,0.7682	-648.45
0.2743,0.7257	-652.48
0.2495,0.7505	-656.48
0.2302,0.7698	-648.44
0.1869,0.8131	-641.48
0.2736,0.7264	-650.51
0.2482,0.7518	-648.74
0.3050,0.6950	-655.12
0.1982,0.8018	-644.36
0.2472,0.7528	-647.60
0.1774,0.8226	-643.06
0.2469,0.7531	-648.71
0.2501,0.7499	-646.59
0.3159,0.6841	-653.16
0.1932,0.8068	-647.23
0.2774,0.7226	-650.64
0.1622,0.8378	-650.03
0.2758,0.7242	-654.45
0.2516,0.7484	-651.00
0.2978,0.7022	-652.34
0.2289,0.7711	-653.28
0.2622,0.7378	-650.16
0.1730,0.8270	-644.71
0.3045,0.6955	-653.45
0.2648,0.7352	-646.15
0.2169,0.7831	-650.94
0.2426,0.7574	-650.90
0.2662,0.7338	-655.35
0.1950,0.8050	-651.45
0.3073,0.6927	-652.75
0.3053,0.6947	-658.42
0.2313,0.7687	-658.06
0.2839,0.7161	-657.36
0.2932,0.7068	-658.31
0.2465,0.7535	-650.94
0.2867,0.7133	-651.00
0.3109,0.6891	-656.90
0.2458,0.7542	-657.66
0.2636,0.7364	-659.45
0.2520,0.7480	-642.31
0.2440,0.7560	-658.83
0.3160,0.6840	-660.12
0.2970,0.7030	-660.06
0.2532,0.7468	-644.54
0.2564,0.7436	-651.08
0.2563,0.7437	-654.28
0.2392,0.7608	-658.97
0.2997,0.7003	-656.66
0.2885,0.7115	-656.49
0.2264,0.7736	-642.26
0.2317,0.7683	-660.44
0.2678,0.7322	-655.35
0.2658,0.7342	-659.41
0.2735,0.7265	-653.44
0.3007,0.6993	-653.30
0.2486,0.7514	-650.96
0.2503,0.7497	-644.40
0.2863,0.7137	-657.38
0.2423,0.7577	-652.04
0.2789,0.7211	-652.60
0.2918,0.7082	-655.64
0.1881,0.8119	-641.49
0.2102,0.7898	-657.66
0.2731,0.7269	-655.39
0.2533,0.7467	-651.03
0.2562,0.7438	-652.14
0.3012,0.6988	-660.90
0.1939,0.8061	-651.49
0.2282,0.7718	-650.85
0.2930,0.7070	-660.07
0.2430,0.7570	-653.17
0.2792,0.7208	-654.50
0.3127,0.6873	-660.09
0.2265,0.7735	-654.54
0.2357,0.7643	-653.21
0.2852,0.7148	-659.21
0.2479,0.7521	-652.06
0.3291,0.6709	-658.84
0.3398,0.6602	-655.80
0.2464,0.7536	-655.41
0.2228,0.7772	-650.88
0.2650,0.7350	-655.34
0.2056,0.7944	-644.38
0.3318,0.6682	-658.21
0.3300,0.6700	-658.16
0.2966,0.7034	-659.20
0.2659,0.7341	-657.38
0.2243,0.7757	-653.35
0.1964,0.8036	-652.81
0.3303,0.6697	-655.34
0.2828,0.7172	-659.22
0.2468,0.7532	-652.06
0.2377,0.7623	-650.86
0.2517,0.7483	-651.01
0.2137,0.7863	-647.07
0.3315,0.6685	-660.30
0.2857,0.7143	-657.37
0.2203,0.7797	-654.69
0.2570,0.7430	-648.97
0.2770,0.7230	-659.26
0.2483,0.7517	-655.39
0.2909,0.7091	-656.52
0.3012,0.6988	-654.16
0.2207,0.7793	-654.68
0.2782,0.7218	-654.48
0.2598,0.7402	-649.05
0.2470,0.7530	-647.60
0.3099,0.6901	-650.47
0.2863,0.7137	-655.55
0.2223,0.7777	-648.38
0.2838,0.7162	-661.06
0.2650,0.7350	-662.49
0.2506,0.7494	-655.37
0.3096,0.6904	-656.87
0.2784,0.7216	-659.25
0.2151,0.7849	-648.37
0.2373,0.7627	-650.86
0.2312,0.7688	-648.45
0.2720,0.7280	-650.46
0.2502,0.7498	-649.89
0.2596,0.7404	-650.10
0.2038,0.7962	-647.10
0.2521,0.7479	-657.54
0.2363,0.7637	-661.42
0.2918,0.7082	-647.67
0.2575,0.7425	-656.40
0.2590,0.7410	-652.18
0.1925,0.8075	-654.41
0.2714,0.7286	-650.44
0.2276,0.7724	-652.08
0.2243,0.7757	-648.39
0.2309,0.7691	-648.44
0.2457,0.7543	-652.05
0.1844,0.8156	-644.46
0.2855,0.7145	-651.86
0.2469,0.7531	-648.71
0.1985,0.8015	-649.94
0.2211,0.7789	-655.93
0.2972,0.7028	-653.17
0.2050,0.7950	-647.09
0.2712,0.7288	-651.42
0.2560,0.7440	-653.21
0.2005,0.7995	-654.04
0.2166,0.7834	-650.94
0.2756,0.7244	-657.34
0.1770,0.8230	-650.75
0.2878,0.7122	-655.57
0.2763,0.7237	-660.23
0.2034,0.7966	-655.29
0.2080,0.7920	-647.08
0.2847,0.7153	-656.44
0.1647,0.8353	-648.25
0.2857,0.7143	-657.37
0.2772,0.7228	-647.76
0.2182,0.7818	-644.54
0.2378,0.7622	-650.87
0.2872,0.7128	-658.29
0.1881,0.8119	-650.26
0.2501,0.7499	-661.96
0.3180,0.6820	-654.80
0.2537,0.7463	-653.19
0.2219,0.7781	-648.38
0.3083,0.6917	-657.65
0.2105,0.7895	-649.72
0.2017,0.7983	-647.11
0.3365,0.6635	-657.67
0.2394,0.7606	-646.25
0.2449,0.7551	-646.42
0.2493,0.7507	-652.07
0.2161,0.7839	-648.37
0.2037,0.7963	-647.10
0.3174,0.6826	-654.77
0.2385,0.7615	-649.71
0.2458,0.7542	-653.17
0.2703,0.7297	-657.35
0.2462,0.7538	-646.46
0.2161,0.7839	-649.66
0.3121,0.6879	-659.30
0.2791,0.7209	-653.55
0.2787,0.7213	-657.35
0.2971,0.7029	-658.34
0.2785,0.7215	-649.73
0.2267,0.7733	-650.86
0.2851,0.7149	-655.53
0.3155,0.6845	-663.99
0.2808,0.7192	-652.65
0.2379,0.7621	-652.03
0.3102,0.6898	-654.49
0.2309,0.7691	-649.65
0.2424,0.7576	-660.01
0.2971,0.7029	-661.78
0.2795,0.7205	-651.67
0.2270,0.7730	-648.41
0.2894,0.7106	-653.81
0.2630,0.7370	-655.34
0.2687,0.7313	-656.36
0.3163,0.6837	-657.81
0.2282,0.7718	-648.42
0.2388,0.7612	-649.71
0.2471,0.7529	-650.94
0.2570,0.7430	-652.16
0.2470,0.7530	-648.71
0.3114,0.6886	-651.36
0.2381,0.7619	-649.70
0.2397,0.7603	-645.10
0.2312,0.7688	-652.05
0.2551,0.7449	-659.63
0.2738,0.7262	-649.54
0.2762,0.7238	-646.74
0.2337,0.7663	-652.04
0.2223,0.7777	-644.62
0.2530,0.7470	-651.02
0.2382,0.7618	-650.87
0.3065,0.6935	-655.16
0.3034,0.6966	-654.24
0.2502,0.7498	-654.28
0.2075,0.7925	-645.74
0.2812,0.7188	-648.91
0.2629,0.7371	-648.12
0.3584,0.6416	-657.39
0.3062,0.6938	-659.25
0.2204,0.7796	-648.37
0.2217,0.7783	-652.14
0.2533,0.7467	-648.87
0.2675,0.7325	-657.37
0.3243,0.6757	-661.67
0.2876,0.7124	-660.10
0.2334,0.7666	-652.04
0.2014,0.7986	-652.63
0.2507,0.7493	-647.71
0.2525,0.7475	-649.93
0.3966,0.6034	-662.63
0.2349,0.7651	-652.03
0.2139,0.7861	-654.89
0.2629,0.7371	-651.21
0.2431,0.7569	-656.58
0.2540,0.7460	-653.20
0.3907,0.6093	-664.63
0.1898,0.8102	-656.01
0.2013,0.7987	-654.01
0.2909,0.7091	-651.17
0.2399,0.7601	-654.34
0.2555,0.7445	-652.14
0.2850,0.7150	-663.81
0.1476,0.8524	-661.72
0.2095,0.7905	-644.42
0.3158,0.6842	-653.16
0.2620,0.7380	-661.55
0.2220,0.7780	-647.12
0.2755,0.7245	-650.57
0.1741,0.8259	-652.46
0.1914,0.8086	-648.70
0.2408,0.7592	-652.03
0.2553,0.7447	-653.20
0.2150,0.7850	-654.85
0.3059,0.6941	-660.06
0.2057,0.7943	-648.44
0.1965,0.8035	-651.40
0.2918,0.7082	-657.42
0.2729,0.7271	-654.41
0.2675,0.7325	-651.32
0.2924,0.7076	-655.66
0.2170,0.7830	-653.50
0.1910,0.8090	-645.83
0.2787,0.7213	-651.64
0.2538,0.7462	-643.49
0.2453,0.7547	-653.17
0.3051,0.6949	-657.59
0.1974,0.8026	-651.37
0.1929,0.8071	-648.67
0.2361,0.7639	-655.55
0.2288,0.7712	-655.71
0.2017,0.7983	-648.49
0.3262,0.6738	-659.50
0.2096,0.7904	-649.73
0.1966,0.8034	-645.77
0.2429,0.7571	-654.31
0.2080,0.7920	-645.74
0.2287,0.7713	-652.07
0.3349,0.6651	-658.99
0.2041,0.7959	-652.54
0.1767,0.8233	-649.23
0.2662,0.7338	-654.33
0.2096,0.7904	-652.38
0.2543,0.7457	-648.89
0.3486,0.6514	-660.01
0.2505,0.7495	-654.28
0.1818,0.8182	-646.01
0.2734,0.7266	-659.30
0.1784,0.8216	-647.63
0.2648,0.7352	-657.38
0.3652,0.6348	-664.95
0.2727,0.7273	-652.44
0.1664,0.8336	-652.99
0.2812,0.7188	-664.86
0.2021,0.7979	-655.35
0.2824,0.7176	-657.36
0.4067,0.5933	-664.15
0.2893,0.7107	-652.00
0.1870,0.8130	-647.36
0.2681,0.7319	-652.34
0.1935,0.8065	-642.94
0.3015,0.6985	-651.65
0.3819,0.6181	-660.67
0.2907,0.7093	-657.41
0.1737,0.8263	-649.37
0.2439,0.7561	-647.52
0.2248,0.7752	-654.58
0.2874,0.7126	-655.57
0.3482,0.6518	-657.49
0.3330,0.6670	-659.63
0.1896,0.8104	-651.66
0.2689,0.7311	-651.36
0.2232,0.7768	-655.87
0.2686,0.7314	-655.36
0.3193,0.6807	-659.39
0.3137,0.6863	-663.23
0.1843,0.8157	-644.46
0.2433,0.7567	-658.85
0.1810,0.8190	-650.56
0.2536,0.7464	-655.35
0.2939,0.7061	-652.18
0.3154,0.6846	-653.91
0.2599,0.7401	-657.43
0.2394,0.7606	-648.56
0.1535,0.8465	-652.39
0.2226,0.7774	-649.63
0.2556,0.7444	-652.14
0.2745,0.7255	-648.60
0.2110,0.7890	-649.71
0.2422,0.7578	-654.32
0.1587,0.8413	-650.27
0.2040,0.7960	-648.46
0.2771,0.7229	-659.26
0.2998,0.7002	-656.66
0.2149,0.7851	-650.96
0.2543,0.7457	-652.12
0.1775,0.8225	-639.99
0.1827,0.8173	-648.98
0.3151,0.6849	-655.45
0.3365,0.6635	-658.35
0.2089,0.7911	-645.74
0.2843,0.7157	-658.29
0.2087,0.7913	-651.07
0.1546,0.8454	-645.49
0.3479,0.6521	-661.25
0.4047,0.5953	-662.55
0.2402,0.7598	-657.79
0.2775,0.7225	-662.13
0.2325,0.7675	-644.88
0.1464,0.8536	-642.50
0.3118,0.6882	-654.54
0.3798,0.6202	-662.05
0.2734,0.7266	-653.44
0.2775,0.7225	-659.26
0.1937,0.8063	-644.37
0.1516,0.8484	-647.40
0.3025,0.6975	-658.38
0.3280,0.6720	-653.08
0.2827,0.7173	-656.43
0.2857,0.7143	-652.79
0.2543,0.7457	-648.89
0.1460,0.8540	-644.28
0.2974,0.7026	-657.48
0.3908,0.6092	-663.30
0.2466,0.7534	-658.76
0.2786,0.7214	-651.64
0.2474,0.7526	-653.17
0.1571,0.8429	-643.68
0.2774,0.7226	-651.60
0.3763,0.6237	-664.47
0.2844,0.7156	-660.13
0.2749,0.7251	-658.31
0.2271,0.7729	-656.98
0.1804,0.8196	-653.61
0.2549,0.7451	-658.57
0.3806,0.6194	-662.56
0.3176,0.6824	-666.25
0.2507,0.7493	-650.99
0.2224,0.7776	-655.89
0.2058,0.7942	-651.14
0.2611,0.7389	-651.17
0.3315,0.6685	-660.30
0.2997,0.7003	-653.27
0.2455,0.7545	-647.56
0.1941,0.8059	-648.64
0.1904,0.8096	-640.05
0.2554,0.7446	-650.00
0.3669,0.6331	-657.86
0.2735,0.7265	-658.32
0.2350,0.7650	-644.95
0.1513,0.8487	-649.14
0.1939,0.8061	-640.09
0.2854,0.7146	-654.62
0.3334,0.6666	-655.48
0.2272,0.7728	-652.08
0.2256,0.7744	-648.40
0.1713,0.8287	-654.22
0.1914,0.8086	-650.15
0.2580,0.7420	-652.17
0.3431,0.6569	-660.52
0.2247,0.7753	-654.58
0.2226,0.7774	-653.38
0.1822,0.8178	-638.49
0.1810,0.8190	-644.52
0.2054,0.7946	-653.85
0.3623,0.6377	-663.82
0.2368,0.7632	-655.54
0.2404,0.7596	-648.58
0.1876,0.8124	-650.28
0.1874,0.8126	-648.82
0.2308,0.7692	-647.24
0.3267,0.6733	-660.96
0.2341,0.7659	-648.48
0.2653,0.7347	-654.33
0.2091,0.7909	-648.40
0.1993,0.8007	-647.14
0.2485,0.7515	-647.64
0.2855,0.7145	-653.70
0.2326,0.7674	-646.08
0.2654,0.7346	-654.33
0.2240,0.7760	-654.60
0.1839,0.8161	-648.94
0.2399,0.7601	-652.03
0.2889,0.7111	-654.69
0.2246,0.7754	-644.67
0.2386,0.7614	-648.55
0.2364,0.7636	-652.03
0.1867,0.8133	-653.26
0.2287,0.7713	-644.77
0.3101,0.6899	-656.08
0.1913,0.8087	-650.15
0.2937,0.7063	-657.44
0.2303,0.7697	-644.82
0.2178,0.7822	-647.09
0.2178,0.7822	-656.04
0.3288,0.6712	-659.55
0.2252,0.7748	-649.63
0.2652,0.7348	-658.40
0.2585,0.7415	-647.96
0.2244,0.7756	-654.59
0.2419,0.7581	-652.03
0.3465,0.6535	-659.32
0.1807,0.8193	-647.55
0.2983,0.7017	-650.65
0.2611,0.7389	-651.18
0.2023,0.7977	-655.34
0.2480,0.7520	-654.28
0.4002,0.5998	-664.38
0.1532,0.8468	-648.99
0.2375,0.7625	-657.86
0.2618,0.7382	-654.30
0.1985,0.8015	-654.13
0.2357,0.7643	-650.86
0.3593,0.6407	-663.22
0.1488,0.8512	-652.83
0.2389,0.7611	-654.35
0.2379,0.7621	-657.85
0.2198,0.7802	-649.64
0.2008,0.7992	-652.65
0.3425,0.6575	-662.46
0.1537,0.8463	-647.25
0.2442,0.7558	-649.78
0.2646,0.7354	-652.28
0.2180,0.7820	-653.48
0.1794,0.8206	-647.59
0.2802,0.7198	-652.63
0.1736,0.8264	-647.81
0.2543,0.7457	-654.27
0.2880,0.7120	-657.39
0.2351,0.7649	-650.85
0.2019,0.7981	-649.86
0.2894,0.7106	-655.60
0.1568,0.8432	-645.37
0.2411,0.7589	-654.33
0.2525,0.7475	-654.27
0.2346,0.7654	-653.22
0.2291,0.7709	-642.36
0.3090,0.6910	-656.85
0.1960,0.8040	-642.95
0.2848,0.7152	-653.68
0.2399,0.7601	-653.18
0.2206,0.7794	-649.64
0.2408,0.7592	-657.77
0.2776,0.7224	-650.65
0.1883,0.8117	-642.95
0.3018,0.6982	-659.22
0.2684,0.7316	-653.35
0.2344,0.7656	-647.30
0.2246,0.7754	-652.11
0.2956,0.7044	-657.46
0.1882,0.8118	-648.79
0.2965,0.7035	-653.15
0.2935,0.7065	-654.80
0.2833,0.7167	-654.57
0.2091,0.7909	-643.08
0.2830,0.7170	-650.85
0.1957,0.8043	-647.19
0.2470,0.7530	-645.37
0.2797,0.7203	-656.40
0.2847,0.7153	-652.76
0.2126,0.7874	-649.69
0.2874,0.7126	-652.84
0.1709,0.8291	-644.77
0.2662,0.7338	-653.32
0.2736,0.7264	-648.56
0.2786,0.7214	-657.35
0.2187,0.7813	-648.37
0.2849,0.7151	-650.93
0.1569,0.8431	-643.68
0.2531,0.7469	-652.11
0.2275,0.7725	-645.97
0.2414,0.7586	-645.16
0.2153,0.7847	-649.67
0.2732,0.7268	-655.39
0.1521,0.8479	-647.36
0.2514,0.7486	-651.00
0.2261,0.7739	-654.55
0.2486,0.7514	-650.96
0.2472,0.7528	-649.83
0.3061,0.6939	-655.15
0.1722,0.8278	-643.16
0.2769,0.7231	-657.34
0.1989,0.8011	-648.54
0.2956,0.7044	-653.99
0.2540,0.7460	-652.12
0.2623,0.7377	-654.30
0.1813,0.8187	-639.99
0.2945,0.7055	-658.32
0.2304,0.7696	-649.64
0.2962,0.7038	-654.00
0.2208,0.7792	-648.37
0.2674,0.7326	-651.32
0.2259,0.7741	-644.70
0.3125,0.6875	-659.30
0.2395,0.7605	-655.50
0.3501,0.6499	-657.58
0.2528,0.7472	-651.02
0.2191,0.7809	-650.91
0.2534,0.7466	-654.27
0.2959,0.7041	-652.26
0.2903,0.7097	-655.62
0.3056,0.6944	-651.85
0.2407,0.7593	-649.73
0.2181,0.7819	-652.20
0.2932,0.7068	-658.31
0.2432,0.7568	-656.58
0.2762,0.7238	-653.49
0.2851,0.7149	-652.77
0.2401,0.7599	-652.03
0.2303,0.7697	-650.85
0.3595,0.6405	-655.72
0.2451,0.7549	-652.05
0.2700,0.7300	-650.39
0.3091,0.6909	-653.64
0.2382,0.7618	-653.19
0.2495,0.7505	-659.78
0.3616,0.6384	-660.40
0.2438,0.7562	-649.78
0.3220,0.6780	-652.73
0.3081,0.6919	-659.26
0.2202,0.7798	-648.37
0.2453,0.7547	-654.30
0.4311,0.5689	-666.06
0.2661,0.7339	-659.40
0.3672,0.6328	-656.24
0.2775,0.7225	-649.69
0.1687,0.8313	-646.44
0.2111,0.7889	-651.03
0.3793,0.6207	-661.05
0.2988,0.7012	-653.23
0.3503,0.6497	-658.20
0.2386,0.7614	-648.55
0.1835,0.8165	-642.98
0.2416,0.7584	-652.03
0.3336,0.6664	-658.26
0.3531,0.6469	-661.96
0.3884,0.6116	-664.60
0.2868,0.7132	-648.27
0.2264,0.7736	-650.86
0.2484,0.7516	-649.85
0.3312,0.6688	-658.19
0.3256,0.6744	-658.03
0.3124,0.6876	-651.41
0.2465,0.7535	-648.70
0.2282,0.7718	-650.85
0.2376,0.7624	-645.03
0.2878,0.7122	-652.85
0.3656,0.6344	-663.85
0.3094,0.6906	-658.47
0.2555,0.7445	-653.21
0.2284,0.7716	-650.85
0.2714,0.7286	-652.41
0.3172,0.6828	-661.66
0.3424,0.6576	-662.46
0.3075,0.6925	-659.26
0.2304,0.7696	-653.26
0.2509,0.7491	-653.18
0.2270,0.7730	-652.08
0.2856,0.7144	-646.37
0.3860,0.6140	-660.39
0.2705,0.7295	-650.41
0.2186,0.7814	-639.45
0.2324,0.7676	-655.63
0.2378,0.7622	-647.37
0.2612,0.7388	-658.46
0.3324,0.6676	-658.92
0.2353,0.7647	-648.50
0.2041,0.7959	-643.01
0.2314,0.7686	-650.85
0.2204,0.7796	-661.01
0.2892,0.7108	-655.60
0.3396,0.6604	-661.77
0.2370,0.7630	-656.71
0.2290,0.7710	-653.28
0.2597,0.7403	-657.43
0.2124,0.7876	-645.76
0.2650,0.7350	-654.32
0.3622,0.6378	-658.73
0.2582,0.7418	-658.50
0.2469,0.7531	-644.25
0.2363,0.7637	-646.17
0.2186,0.7814	-650.92
0.2219,0.7781	-648.38
0.3659,0.6341	-657.80
0.2459,0.7541	-652.05
0.2571,0.7429	-652.16
0.2317,0.7683	-647.25
0.2442,0.7558	-658.82
0.2201,0.7799	-647.11
0.4158,0.5842	-664.43
0.2345,0.7655	-649.67
0.2368,0.7632	-657.88
0.2886,0.7114	-660.10
0.2643,0.7357	-655.34
0.2227,0.7773	-647.13
0.4441,0.5559	-666.13
0.2404,0.7596	-658.93
0.2260,0.7740	-653.32
0.2762,0.7238	-655.42
0.2721,0.7279	-655.38
0.2267,0.7733	-655.77
0.3766,0.6234	-661.95
0.2945,0.7055	-653.95
0.2110,0.7890	-648.39
0.2648,0.7352	-649.21
0.2310,0.7690	-648.44
0.1935,0.8065	-645.80
0.4112,0.5888	-663.93
0.3061,0.6939	-651.88
0.2202,0.7798	-643.32
0.2789,0.7211	-654.50
0.2177,0.7823	-658.60
0.2057,0.7943	-655.19
0.3963,0.6037	-663.03
0.3170,0.6830	-649.38
0.2553,0.7447	-647.85
0.3158,0.6842	-652.39
0.2365,0.7635	-656.72
0.1682,0.8318	-646.46
0.3721,0.6279	-658.16
0.3044,0.6956	-654.27
0.2297,0.7703	-652.06
0.3113,0.6887	-660.88
0.2400,0.7600	-655.49
0.1717,0.8283	-651.04
0.3182,0.6818	-658.61
0.3480,0.6520	-658.11
0.2681,0.7319	-651.34
0.2978,0.7022	-660.06
0.2929,0.7071	-654.79
0.2095,0.7905	-647.07
0.3194,0.6806	-654.85
0.3217,0.6783	-658.68
0.2329,0.7671	-646.08
0.2735,0.7265	-652.46
0.2731,0.7269	-653.43
0.2058,0.7942	-647.09
0.2974,0.7026	-655.76
0.3722,0.6278	-660.78
0.2395,0.7605	-653.19
0.2826,0.7174	-658.29
0.2287,0.7713	-647.20
0.2060,0.7940	-645.74
0.2899,0.7101	-656.51
0.3754,0.6246	-660.38
0.2651,0.7349	-650.24
0.2315,0.7685	-649.65
0.2024,0.7976	-647.11
0.1791,0.8209	-649.12
0.2547,0.7453	-655.35
0.4019,0.5981	-664.02
0.2881,0.7119	-649.25
0.2350,0.7650	-650.85
0.2272,0.7728	-649.63
0.1947,0.8053	-651.46
0.2873,0.7127	-657.38
0.4128,0.5872	-664.33
0.3449,0.6551	-660.55
0.2466,0.7534	-643.12
0.2159,0.7841	-656.11
0.2011,0.7989	-647.12
0.2700,0.7300	-649.40
0.4143,0.5857	-664.73
0.3394,0.6606	-658.44
0.2916,0.7084	-656.53
0.1984,0.8016	-652.73
0.2327,0.7673	-648.46
0.2525,0.7475	-652.10
0.3455,0.6545	-659.93
0.3470,0.6530	-662.50
0.3026,0.6974	-658.39
0.2383,0.7617	-657.84
0.2389,0.7611	-650.87
0.1967,0.8033	-651.39
0.3266,0.6734	-655.89
0.3463,0.6537	-657.41
0.2794,0.7206	-649.77
0.2705,0.7295	-653.39
0.2462,0.7538	-648.70
0.1897,0.8103	-653.10
0.3169,0.6831	-651.67
0.3216,0.6784	-660.92
0.2658,0.7342	-658.39
0.2586,0.7414	-652.18
0.2514,0.7486	-652.09
0.1953,0.8047	-658.52
0.3205,0.6795	-658.66
0.2967,0.7033	-656.61
0.2721,0.7279	-659.32
0.2639,0.7361	-652.26
0.2848,0.7152	-655.53
0.1958,0.8042	-648.60
0.3122,0.6878	-659.30
0.2441,0.7559	-649.78
0.2777,0.7223	-651.61
0.2694,0.7306	-654.36
0.2874,0.7126	-659.20
0.1834,0.8166	-657.92
0.2952,0.7048	-654.84
0.2744,0.7256	-653.45
0.2207,0.7793	-645.85
0.2600,0.7400	-650.11
0.2279,0.7721	-652.07
0.1821,0.8179	-641.49
0.3142,0.6858	-653.86
0.2768,0.7232	-650.62
0.2116,0.7884	-653.65
0.2730,0.7270	-654.41
0.2889,0.7111	-655.59
0.1880,0.8120	-644.41
0.3134,0.6866	-655.39
0.2661,0.7339	-655.35
0.1985,0.8015	-654.13
0.2151,0.7849	-645.78
0.3435,0.6565	-662.47
0.1624,0.8376	-648.38
0.3025,0.6975	-651.70
0.2493,0.7507	-663.10
0.1888,0.8112	-640.03
0.1853,0.8147	-653.33
0.3169,0.6831	-658.59
0.1778,0.8222	-652.24
0.3033,0.6967	-655.07
0.2469,0.7531	-652.06
0.1903,0.8097	-644.39
0.1874,0.8126	-645.89
0.3281,0.6719	-662.40
0.1757,0.8243	-650.82
0.2797,0.7203	-651.67
0.2595,0.7405	-652.19
0.2023,0.7977	-647.11
0.2001,0.7999	-645.74
0.2559,0.7441	-648.94
0.2038,0.7962	-645.73
0.2960,0.7040	-650.53
0.2231,0.7769	-648.38
0.2487,0.7513	-649.86
0.2038,0.7962	-649.82
0.2422,0.7578	-649.75
0.1857,0.8143	-654.79
0.2518,0.7482	-658.63
0.2594,0.7406	-654.29
0.2557,0.7443	-652.14
0.2291,0.7709	-652.07
0.2233,0.7767	-653.37
0.1899,0.8101	-648.75
0.2539,0.7461	-646.73
0.2171,0.7829	-653.50
0.2579,0.7421	-654.28
0.2205,0.7795	-645.85
0.2011,0.7989	-649.88
0.1638,0.8362	-645.04
0.2456,0.7544	-650.93
0.2255,0.7745	-643.46
0.2572,0.7428	-654.28
0.2289,0.7711	-653.28
0.2186,0.7814	-649.64
0.1792,0.8208	-649.12
0.2066,0.7934	-653.81
0.2444,0.7556	-656.56
0.2690,0.7310	-658.36
0.2358,0.7642	-652.03
0.1933,0.8067	-652.94
0.1708,0.8292	-646.36
0.2387,0.7613	-643.91
0.2944,0.7056	-658.32
0.2205,0.7795	-648.37
0.2263,0.7737	-652.09
0.1902,0.8098	-654.53
0.1714,0.8286	-643.18
0.2666,0.7334	-651.30
0.3117,0.6883	-652.17
0.2112,0.7888	-648.39
0.2286,0.7714	-652.07
0.2236,0.7764	-648.38
0.1959,0.8041	-648.60
0.2806,0.7194	-655.47
0.2860,0.7140	-662.86
0.1900,0.8100	-647.29
0.2745,0.7255	-659.29
0.2339,0.7661	-654.41
0.2073,0.7927	-644.40
0.2846,0.7154	-654.60
0.3232,0.6768	-655.75
0.1964,0.8036	-645.77
0.2558,0.7442	-652.14
0.2409,0.7591	-644.00
0.2046,0.7954	-656.60
0.2719,0.7281	-652.42
0.3299,0.6701	-657.44
0.1732,0.8268	-641.58
0.2639,0.7361	-656.37
0.2248,0.7752	-658.29
0.2250,0.7750	-653.34
0.2743,0.7257	-657.34
0.3201,0.6799	-658.65
0.1770,0.8230	-650.75
0.2309,0.7691	-642.43
0.2315,0.7685	-655.65
0.2259,0.7741	-653.32
0.2652,0.7348	-647.19
0.3189,0.6811	-655.59
0.1874,0.8126	-647.35
0.2238,0.7762	-649.63
0.1968,0.8032	-644.36
0.1972,0.8028	-651.38
0.2456,0.7544	-655.42
0.3319,0.6681	-656.11
0.2085,0.7915	-648.41
0.2247,0.7753	-655.82
0.1843,0.8157	-640.00
0.1799,0.8201	-649.09
0.2972,0.7028	-659.20
0.2826,0.7174	-653.63
0.2437,0.7563	-653.17
0.2219,0.7781	-644.61
0.1797,0.8203	-646.06
0.2026,0.7974	-644.37
0.2451,0.7549	-649.80
0.2689,0.7311	-656.36
0.2442,0.7558	-649.78
0.1897,0.8103	-656.01
0.1663,0.8337	-640.10
0.1855,0.8145	-647.40
0.2902,0.7098	-659.19
0.2477,0.7523	-650.95
0.2176,0.7824	-652.21
0.2099,0.7901	-651.05
0.1649,0.8351	-641.75
0.1825,0.8175	-644.49
0.2842,0.7158	-648.13
0.2392,0.7608	-654.34
0.2286,0.7714	-650.85
0.1766,0.8234	-649.23
0.1863,0.8137	-644.43
0.2003,0.7997	-645.74
0.2946,0.7054	-661.81
0.2461,0.7539	-653.17
0.2321,0.7679	-650.85
0.1790,0.8210	-647.60
0.2300,0.7700	-655.68
0.1801,0.8199	-652.12
0.2382,0.7618	-652.03
0.2443,0.7557	-650.91
0.2072,0.7928	-645.74
0.1983,0.8017	-647.15
0.1955,0.8045	-642.95
0.1924,0.8076	-651.55
0.2669,0.7331	-663.43
0.1999,0.8001	-642.97
0.1793,0.8207	-655.20
0.2031,0.7969	-643.00
0.1972,0.8028	-648.57
0.2068,0.7932	-656.49
0.2868,0.7132	-649.18
0.1854,0.8146	-648.88
0.1559,0.8441	-645.42
0.1792,0.8208	-649.12
0.2283,0.7717	-656.94
0.2020,0.7980	-649.86
0.2686,0.7314	-660.37
0.2136,0.7864	-648.38
0.1557,0.8443	-642.05
0.1684,0.8316	-651.24
0.2168,0.7832	-654.79
0.1930,0.8070	-648.66
0.2780,0.7220	-658.30
0.1950,0.8050	-647.20
0.1640,0.8360	-653.17
0.1932,0.8068	-645.80
0.2896,0.7104	-654.71
0.2061,0.7939	-641.69
0.2337,0.7663	-654.41
0.2010,0.7990	-651.26
0.1557,0.8443	-648.81
0.2235,0.7765	-650.88
0.2853,0.7147	-658.29
0.2197,0.7803	-652.17
0.2586,0.7414	-651.13
0.1703,0.8297	-646.38
0.1601,0.8399	-645.20
0.2724,0.7276	-659.31
0.3004,0.6996	-656.67
0.2196,0.7804	-650.91
0.2766,0.7234	-654.46
0.1869,0.8131	-651.78
0.1809,0.8191	-655.09
0.2765,0.7235	-653.50
0.2919,0.7081	-660.08
0.2156,0.7844	-649.66
0.2573,0.7427	-655.34
0.1883,0.8117	-653.18
0.2095,0.7905	-652.39
0.2789,0.7211	-654.50
0.2612,0.7388	-647.02
0.2428,0.7572	-646.35
0.2174,0.7826	-647.09
0.2344,0.7656	-654.40
0.2040,0.7960	-638.93
0.2576,0.7424	-655.34
0.2495,0.7505	-658.68
0.2041,0.7959	-651.18
0.1872,0.8128	-638.55
0.2865,0.7135	-658.29
0.1921,0.8079	-648.69
0.2622,0.7378	-650.16
0.2453,0.7547	-655.42
0.1912,0.8088	-638.61
0.1708,0.8292	-658.99
0.2699,0.7301	-654.37
0.1633,0.8367	-651.60
0.2457,0.7543	-649.81
0.2360,0.7640	-652.03
0.1831,0.8169	-648.97
0.1912,0.8088	-645.83
0.2727,0.7273	-656.37
0.1915,0.8085	-640.06
0.2405,0.7595	-653.18
0.2197,0.7803	-652.17
0.1893,0.8107	-648.76
0.2041,0.7959	-644.37
0.2663,0.7337	-649.27
0.2061,0.7939	-655.18
0.2575,0.7425	-650.04
0.2472,0.7528	-647.60
0.2042,0.7958	-648.45
0.1878,0.8122	-642.95
0.2109,0.7891	-647.07
0.2533,0.7467	-659.68
0.2690,0.7310	-657.36
0.2583,0.7417	-650.06
0.2488,0.7512	-657.59
0.1607,0.8393	-661.70
0.1831,0.8169	-641.49
0.2397,0.7603	-646.26
0.2546,0.7454	-651.05
0.2344,0.7656	-656.77
0.2043,0.7957	-647.09
0.1776,0.8224	-647.65
0.1615,0.8385	-645.14
0.2558,0.7442	-646.80
0.2277,0.7723	-653.30
0.2253,0.7747	-648.39
0.2084,0.7916	-649.74
0.1712,0.8288	-643.19
0.1682,0.8318	-649.66
0.2573,0.7427	-652.16
0.2241,0.7759	-648.39
0.2164,0.7836	-652.23
0.2119,0.7881	-648.39
0.1681,0.8319	-640.07
0.1870,0.8130	-648.83
0.2382,0.7618	-653.19
0.2466,0.7534	-648.71
0.2140,0.7860	-650.98
0.2199,0.7801	-652.17
0.1883,0.8117	-650.25
0.1706,0.8294	-643.20
0.2571,0.7429	-653.22
0.2883,0.7117	-659.20
0.2083,0.7917	-647.08
0.2124,0.7876	-644.45
0.2087,0.7913	-647.07
0.2037,0.7963	-662.09
0.2544,0.7456	-653.20
0.3013,0.6987	-655.85
0.2228,0.7772	-654.63
0.2619,0.7381	-647.05
0.2436,0.7564	-657.71
0.2353,0.7647	-652.03
0.2586,0.7414	-645.86
0.3243,0.6757	-663.87
0.2324,0.7676	-647.26
0.2190,0.7810	-653.46
0.2241,0.7759	-654.60
0.2011,0.7989	-648.50
0.1859,0.8141	-650.35
0.2970,0.7030	-656.61
0.2418,0.7582	-650.89
0.2543,0.7457	-649.97
0.2071,0.7929	-647.08
0.1935,0.8065	-647.22
0.2086,0.7914	-643.07
0.2959,0.7041	-659.19
0.2479,0.7521	-655.39
0.2682,0.7318	-654.35
0.1905,0.8095	-645.84
0.1650,0.8350	-648.23
0.2341,0.7659	-661.52
0.2751,0.7249	-656.37
0.2516,0.7484	-653.18
0.2642,0.7358	-649.20
0.2112,0.7888	-648.39
0.1766,0.8234	-638.45
0.1938,0.8062	-650.07
0.2699,0.7301	-661.34
0.2638,0.7362	-653.29
0.2309,0.7691	-653.26
0.2048,0.7952	-645.73
0.1731,0.8269	-646.27
0.1636,0.8364	-649.94
0.2295,0.7705	-654.48
0.2993,0.7007	-660.06
0.2429,0.7571	-655.45
0.2653,0.7347	-657.38
0.1833,0.8167	-650.45
0.2146,0.7854	-641.89
0.2231,0.7769	-659.61
0.2736,0.7264	-651.49
0.2664,0.7336	-651.30
0.2217,0.7783	-653.40
0.1940,0.8060	-645.79
0.2128,0.7872	-649.69
0.2443,0.7557	-652.04
0.3018,0.6982	-648.31
0.3083,0.6917	-660.88
0.2388,0.7612	-648.55
0.1923,0.8077	-650.12
0.1976,0.8024	-649.96
0.2232,0.7768	-650.88
0.2861,0.7139	-647.31
0.3126,0.6874	-661.67
0.2529,0.7471	-649.94
0.2083,0.7917	-652.42
0.1836,0.8164	-647.46
0.2365,0.7635	-653.20
0.2923,0.7077	-660.08
0.2955,0.7045	-653.11
0.2295,0.7705	-652.06
0.1871,0.8129	-650.30
0.2030,0.7970	-644.37
0.2721,0.7279	-654.40
0.2738,0.7262	-661.25
0.2711,0.7289	-655.37
0.2677,0.7323	-657.37
0.2244,0.7756	-652.11
0.2318,0.7682	-648.45
0.2680,0.7320	-660.38
0.2725,0.7275	-660.29
0.3025,0.6975	-659.22
0.2868,0.7132	-651.91
0.2431,0.7569	-648.63
0.2675,0.7325	-649.31
0.2606,0.7394	-650.12
0.2842,0.7158	-652.74
0.2538,0.7462	-646.73
0.3097,0.6903	-659.28
0.2681,0.7319	-655.36
0.2907,0.7093	-655.62
0.2579,0.7421	-659.57
0.3005,0.6995	-660.06
0.2361,0.7639	-650.86
0.2825,0.7175	-648.96
0.2537,0.7463	-651.04
0.2336,0.7664	-654.42
0.2138,0.7862	-647.08
0.3280,0.6720	-655.95
0.2565,0.7435	-646.83
0.2408,0.7592	-654.33
0.2096,0.7904	-653.71
0.2340,0.7660	-654.41
0.2295,0.7705	-656.91
0.3378,0.6622	-662.43
0.2167,0.7833	-662.51
0.2515,0.7485	-655.36
0.2274,0.7726	-645.96
0.2233,0.7767	-649.63
0.2563,0.7437	-652.15
0.3268,0.6732	-662.40
0.2020,0.7980	-648.49
0.2584,0.7416	-658.50
0.2359,0.7641	-649.68
0.2199,0.7801	-649.64
0.2602,0.7398	-651.16
0.3235,0.6765	-660.19
0.1605,0.8395	-638.57
0.2702,0.7298	-654.37
0.2262,0.7738	-648.40
0.2137,0.7863	-650.98
0.2528,0.7472	-651.02
0.3364,0.6636	-660.38
0.1595,0.8405	-645.23
0.2432,0.7568	-652.04
0.1689,0.8311	-644.84
0.1883,0.8117	-648.79
0.2327,0.7673	-640.11
0.3558,0.6442	-658.44
0.1716,0.8284	-647.90
0.2308,0.7692	-647.24
0.1916,0.8084	-648.70
0.1770,0.8230	-643.07
0.2695,0.7305	-654.37
0.3369,0.6631	-657.69
0.1599,0.8401	-651.85
0.2395,0.7605	-656.65
0.1778,0.8222	-644.58
0.1667,0.8333	-643.31
0.2774,0.7226	-650.64
0.3692,0.6308	-661.74
0.1712,0.8288	-643.19
0.2563,0.7437	-651.08
0.1738,0.8262	-647.80
0.1478,0.8522	-654.68
0.2929,0.7071	-658.31
0.3229,0.6771	-659.45
0.1808,0.8192	-639.99
0.2756,0.7244	-656.38
0.2019,0.7981	-649.86
0.2098,0.7902	-653.70
0.3157,0.6843	-654.70
0.2997,0.7003	-660.06
0.1906,0.8094	-653.07
0.2357,0.7643	-649.68
0.2190,0.7810	-649.64
0.2302,0.7698	-643.61
0.3102,0.6898	-653.69
0.3032,0.6968	-653.40
0.1925,0.8075	-652.98
0.2605,0.7395	-650.12
0.1998,0.8002	-637.42
0.2340,0.7660	-646.11
0.2613,0.7387	-659.49
0.2785,0.7215	-653.54
0.1691,0.8309	-646.42
0.2553,0.7447	-652.13
0.1755,0.8245	-640.00
0.2522,0.7478	-651.01
0.2301,0.7699	-653.27
0.2853,0.7147	-653.70
0.1882,0.8118	-644.41
0.2458,0.7542	-654.29
0.2067,0.7933	-648.43
0.2935,0.7065	-656.56
0.2563,0.7437	-657.47
0.2697,0.7303	-650.38
0.2245,0.7755	-643.43
0.2658,0.7342	-655.35
0.2408,0.7592	-652.03
0.2343,0.7657	-650.85
0.3271,0.6729	-655.91
0.2667,0.7333	-654.34
0.1955,0.8045	-645.78
0.2149,0.7851	-648.37
0.2170,0.7830	-650.94
0.2535,0.7465	-655.35
0.3260,0.6740	-664.58
0.2339,0.7661	-649.67
0.1933,0.8067	-650.08
0.1744,0.8256	-646.22
0.2081,0.7919	-653.76
0.2668,0.7332	-652.32
0.3013,0.6987	-657.53
0.2528,0.7472	-657.53
0.2364,0.7636	-647.34
0.1937,0.8063	-644.37
0.1964,0.8036	-648.59
0.2304,0.7696	-654.47
0.3274,0.6726	-660.96
0.2293,0.7707	-654.49
0.2558,0.7442	-653.21
0.2145,0.7855	-648.37
0.1901,0.8099	-647.29
0.2287,0.7713	-650.85
0.3503,0.6497	-659.44
0.2406,0.7594	-656.63
0.2055,0.7945	-648.44
0.1851,0.8149	-642.97
0.1876,0.8124	-647.35
0.2814,0.7186	-655.48
0.3526,0.6474	-657.69
0.2412,0.7588	-648.60
0.2150,0.7850	-640.60
0.2176,0.7824	-643.25
0.1806,0.8194	-650.57
0.2894,0.7106	-649.31
0.3246,0.6754	-658.74
0.2661,0.7339	-658.39
0.2404,0.7596	-650.88
0.1931,0.8069	-650.09
0.1757,0.8243	-644.63
0.2643,0.7357	-664.55
0.3391,0.6609	-661.10
0.2410,0.7590	-656.62
0.2927,0.7073	-654.78
0.2077,0.7923	-652.43
0.1564,0.8436	-647.08
0.2410,0.7590	-647.44
0.3596,0.6404	-656.88
0.2107,0.7893	-655.00
0.2674,0.7326	-658.38
0.1869,0.8131	-645.89
0.1811,0.8189	-641.50
0.2260,0.7740	-650.86
0.3441,0.6559	-656.67
0.2360,0.7640	-654.38
0.2687,0.7313	-657.36
0.2155,0.7845	-640.62
0.1642,0.8358	-640.14
0.1753,0.8247	-649.29
0.3143,0.6857	-658.54
0.2137,0.7863	-656.20
0.2300,0.7700	-648.43
0.2193,0.7807	-643.29
0.1630,0.8370	-645.07
0.1907,0.8093	-645.83
0.3131,0.6869	-660.88
0.1918,0.8082	-642.94
0.2098,0.7902	-651.05
0.2110,0.7890	-645.75
0.1576,0.8424	-641.98
0.2071,0.7929	-651.11
0.3059,0.6941	-651.87
0.2099,0.7901	-651.05
0.1989,0.8011	-655.51
0.2418,0.7582	-658.89
0.1755,0.8245	-641.55
0.2162,0.7838	-656.10
0.3572,0.6428	-661.44
0.2199,0.7801	-652.17
0.2389,0.7611	-654.35
0.2469,0.7531	-654.29
0.1805,0.8195	-636.96
0.2155,0.7845	-654.83
0.3755,0.6245	-660.90
0.2230,0.7770	-657.12
0.2414,0.7586	-655.47
0.2763,0.7237	-656.38
0.1531,0.8469	-638.74
0.2124,0.7876	-658.86
0.3692,0.6308	-661.20
0.2036,0.7964	-645.73
0.2679,0.7321	-648.32
0.2829,0.7171	-653.64
0.1503,0.8497	-650.96
0.2367,0.7633	-648.52
0.3401,0.6599	-655.81
0.1870,0.8130	-647.36
0.2456,0.7544	-649.80
0.2747,0.7253	-659.29
0.1508,0.8492	-640.54
0.2676,0.7324	-658.37
0.3046,0.6954	-655.11
0.1789,0.8211	-650.65
0.2133,0.7867	-648.38
0.2466,0.7534	-653.17
0.1645,0.8355	-646.63
0.2656,0.7344	-652.29
0.2846,0.7154	-653.68
0.2091,0.7909	-655.06
0.2081,0.7919	-649.75
0.2221,0.7779	-650.89
0.1690,0.8310	-643.24
0.2656,0.7344	-661.45
0.2603,0.7397	-653.25
0.1883,0.8117	-645.87
0.2379,0.7621	-650.87
0.1930,0.8070	-644.37
0.1787,0.8213	-641.51
0.2354,0.7646	-650.86
0.3182,0.6818	-656.33
0.2032,0.7968	-649.83
0.2821,0.7179	-655.49
0.1911,0.8089	-648.71
0.2018,0.7982	-651.24
0.2477,0.7523	-648.73
0.3347,0.6653	-658.29
0.2021,0.7979	-647.11
0.2558,0.7442	-648.94
0.1715,0.8285	-649.48
0.2575,0.7425	-655.34
0.2447,0.7553	-647.54
0.3044,0.6956	-657.58
0.2351,0.7649	-653.21
0.2554,0.7446	-652.14
0.1533,0.8467	-642.15
0.2379,0.7621	-654.36
0.2611,0.7389	-666.78
0.3148,0.6852	-662.44
0.2866,0.7134	-654.64
0.2785,0.7215	-653.54
0.1604,0.8396	-645.19
0.2122,0.7878	-652.32
0.2421,0.7579	-652.03
0.2930,0.7070	-657.43
0.3126,0.6874	-653.00
0.2772,0.7228	-657.34
0.1814,0.8186	-649.03
0.1963,0.8037	-644.36
0.2617,0.7383	-651.19
0.3193,0.6807	-654.85
0.3412,0.6588	-661.79
0.2716,0.7284	-653.40
0.1830,0.8170	-651.96
0.1883,0.8117	-651.71
0.2522,0.7478	-654.27
0.2655,0.7345	-651.27
0.3077,0.6923	-660.07
0.2424,0.7576	-656.59
0.2030,0.7970	-653.94
0.1820,0.8180	-643.00
0.2334,0.7666	-659.17
0.2946,0.7054	-657.45
0.3977,0.6023	-662.67
0.2811,0.7189	-647.96
0.2700,0.7300	-655.37
0.1975,0.8025	-645.76
0.2732,0.7268	-653.43
0.2283,0.7717	-649.64
0.3593,0.6407	-662.64
0.2542,0.7458	-655.35
0.2656,0.7344	-654.33
0.2127,0.7873	-652.31
0.2819,0.7181	-663.90
0.2248,0.7752	-652.11
0.3108,0.6892	-663.27
0.2898,0.7102	-654.71
0.2838,0.7162	-651.81
0.2225,0.7775	-645.88
0.2482,0.7518	-647.63
0.1978,0.8022	-648.56
0.3084,0.6916	-660.07
0.2603,0.7397	-652.20
0.2407,0.7593	-647.44
0.2534,0.7466	-654.27
0.2704,0.7296	-657.35
0.1989,0.8011	-645.75
0.3160,0.6840	-658.57
0.2691,0.7309	-657.36
0.2134,0.7866	-644.47
0.2197,0.7803	-644.57
0.2181,0.7819	-656.03
0.1857,0.8143	-654.79
0.2875,0.7125	-649.22
0.2389,0.7611	-643.92
0.2695,0.7305	-648.38
0.2769,0.7231	-660.22
0.2067,0.7933	-652.46
0.1843,0.8157	-651.90
0.2998,0.7002	-656.66
0.2341,0.7659	-654.41
0.2861,0.7139	-650.97
0.2036,0.7964	-651.19
0.2160,0.7840	-645.79
0.1633,0.8367	-648.33
0.3122,0.6878	-653.77
0.2451,0.7549	-655.42
0.2855,0.7145	-657.37
0.1884,0.8116	-656.09
0.2203,0.7797	-645.85
0.1519,0.8481	-640.49
0.2923,0.7077	-659.19
0.2436,0.7564	-644.11
0.2673,0.7327	-658.38
0.2079,0.7921	-652.43
0.1952,0.8048	-650.03
0.1631,0.8369	-648.34
0.3104,0.6896	-656.89
0.2218,0.7782	-649.63
0.2525,0.7475	-649.93
0.2237,0.7763	-654.61
0.2174,0.7826	-652.21
0.1627,0.8373	-645.09
0.2639,0.7361	-648.16
0.2101,0.7899	-653.69
0.2198,0.7802	-649.64
0.2205,0.7795	-647.11
0.2056,0.7944	-661.95
0.1654,0.8346	-643.35
0.3017,0.6983	-651.66
0.1767,0.8233	-653.85
0.2321,0.7679	-652.05
0.2287,0.7713	-650.85
0.2259,0.7741	-648.40
0.1771,0.8229	-650.74
0.2930,0.7070	-654.79
0.1913,0.8087	-645.82
0.2598,0.7402	-646.96
0.2663,0.7337	-656.36
0.2371,0.7629	-657.87
0.1890,0.8110	-657.51
0.2933,0.7067	-656.55
0.1847,0.8153	-648.91
0.2457,0.7543	-655.41
0.2369,0.7631	-654.37
0.2455,0.7545	-647.56
0.1689,0.8311	-644.84
0.3183,0.6817	-656.33
0.1796,0.8204	-652.14
0.2501,0.7499	-657.57
0.2589,0.7411	-647.97
0.2726,0.7274	-656.37
0.2092,0.7908	-643.08
0.3327,0.6673	-656.84
0.2077,0.7923	-648.42
0.2256,0.7744	-652.10
0.2773,0.7227	-644.89
0.2464,0.7536	-648.70
0.1945,0.8055	-650.05
0.2874,0.7126	-657.38
0.2450,0.7550	-654.30
0.1683,0.8317	-640.07
0.2622,0.7378	-653.27
0.2266,0.7734	-657.00
0.1887,0.8113	-645.86
0.3118,0.6882	-659.30
0.2989,0.7011	-660.06
0.1769,0.8231	-644.60
0.2615,0.7385	-655.34
0.2323,0.7677	-654.44
0.2090,0.7910	-648.40
0.2947,0.7053	-656.57
0.2955,0.7045	-658.33
0.1598,0.8402	-645.22
0.2388,0.7612	-657.83
0.2238,0.7762	-649.63
0.2354,0.7646	-646.14
0.2823,0.7177	-652.69
0.2697,0.7303	-653.37
0.1813,0.8187	-644.51
0.2386,0.7614	-647.39
0.1919,0.8081	-648.69
0.1930,0.8070	-648.66
0.2693,0.7307	-652.37
0.2655,0.7345	-650.26
0.1938,0.8062	-650.07
0.2038,0.7962	-648.46
0.2073,0.7927	-661.83
0.2169,0.7831	-650.94
0.2810,0.7190	-657.35
0.2491,0.7509	-657.59
0.1888,0.8112	-647.32
0.2462,0.7538	-653.17
0.2059,0.7941	-645.73
