#isoforms=['ENSG00000101294.SE.1.A.up_ENSG00000101294.SE.1.A.SE1_ENSG00000101294.SE.1.A.dn','ENSG00000101294.SE.1.B.up_ENSG00000101294.SE.1.B.dn']	exon_lens=('ENSG00000101294.SE.1.A.up',99),('ENSG00000101294.SE.1.A.SE1',376),('ENSG00000101294.SE.1.A.dn',89),('ENSG00000101294.SE.1.B.up',99),('ENSG00000101294.SE.1.B.dn',89)	iters=5000	burn_in=500	lag=10	percent_accept=89.84	proposal_type=drift	counts=(0,0):180,(1,0):88,(1,1):98	assigned_counts=0:124,1:62	chrom=chr20	strand=+	mRNA_starts=31527484,31527484	mRNA_ends=31545035,31545035
sampled_psi	log_score
0.3677,0.6323	-1209.15
0.4211,0.5789	-1211.40
0.4784,0.5216	-1213.22
0.5056,0.4944	-1214.89
0.4020,0.5980	-1210.35
0.3026,0.6974	-1206.85
0.3507,0.6493	-1204.97
0.4125,0.5875	-1214.44
0.4865,0.5135	-1214.25
0.5089,0.4911	-1214.87
0.3797,0.6203	-1212.64
0.3125,0.6875	-1204.17
0.3564,0.6436	-1209.80
0.4276,0.5724	-1211.54
0.5203,0.4797	-1215.33
0.4801,0.5199	-1213.10
0.4405,0.5595	-1212.85
0.2897,0.7103	-1202.94
0.3895,0.6105	-1214.26
0.3825,0.6175	-1208.75
0.4601,0.5399	-1214.22
0.4373,0.5627	-1210.79
0.3928,0.6072	-1210.24
0.3291,0.6709	-1208.37
0.4409,0.5591	-1210.72
0.3708,0.6292	-1209.16
0.4319,0.5681	-1213.57
0.4093,0.5907	-1211.95
0.3683,0.6317	-1210.77
0.2981,0.7019	-1202.75
0.4049,0.5951	-1210.79
0.3993,0.6007	-1209.09
0.4459,0.5541	-1214.24
0.4410,0.5590	-1211.44
0.3478,0.6522	-1207.44
0.3326,0.6674	-1210.38
0.3600,0.6400	-1208.03
0.4195,0.5805	-1212.35
0.4294,0.5706	-1213.01
0.4028,0.5972	-1209.97
0.3484,0.6516	-1213.70
0.3155,0.6845	-1205.69
0.4132,0.5868	-1212.32
0.3412,0.6588	-1214.72
0.4161,0.5839	-1210.63
0.4482,0.5518	-1212.15
0.3866,0.6134	-1206.51
0.3431,0.6569	-1209.41
0.3681,0.6319	-1209.15
0.3728,0.6272	-1207.60
0.3876,0.6124	-1212.49
0.4302,0.5698	-1211.32
0.3818,0.6182	-1211.63
0.3528,0.6472	-1209.86
0.3608,0.6392	-1203.46
0.4249,0.5751	-1210.27
0.3568,0.6432	-1208.62
0.4239,0.5761	-1213.91
0.3937,0.6063	-1211.11
0.2939,0.7061	-1205.46
0.3596,0.6404	-1209.76
0.4049,0.5951	-1210.79
0.3667,0.6333	-1207.52
0.4458,0.5542	-1212.50
0.3888,0.6112	-1209.76
0.3717,0.6283	-1211.78
0.4212,0.5788	-1214.26
0.4644,0.5356	-1213.94
0.3298,0.6702	-1209.06
0.4434,0.5566	-1213.12
0.4042,0.5958	-1206.51
0.3839,0.6161	-1210.66
0.4308,0.5692	-1210.78
0.4439,0.5561	-1212.91
0.3370,0.6630	-1199.41
0.4190,0.5810	-1210.38
0.3918,0.6082	-1211.11
0.3571,0.6429	-1210.97
0.4570,0.5430	-1213.87
0.3747,0.6253	-1208.14
0.3199,0.6801	-1207.88
0.4693,0.5307	-1213.89
0.3871,0.6129	-1212.04
0.3559,0.6441	-1207.44
0.4554,0.5446	-1211.53
0.3591,0.6409	-1206.87
0.3505,0.6495	-1201.88
0.4597,0.5403	-1212.44
0.4160,0.5840	-1210.63
0.3819,0.6181	-1208.26
0.4483,0.5517	-1214.44
0.3621,0.6379	-1209.74
0.3632,0.6368	-1208.60
0.4573,0.5427	-1213.53
0.4541,0.5459	-1213.66
0.3501,0.6499	-1208.67
0.4128,0.5872	-1213.73
0.3885,0.6115	-1212.02
0.3731,0.6269	-1211.76
0.4809,0.5191	-1214.31
0.4321,0.5679	-1210.83
0.3186,0.6814	-1202.59
0.3311,0.6689	-1204.80
0.4332,0.5668	-1212.76
0.3906,0.6094	-1211.11
0.5334,0.4666	-1215.56
0.4439,0.5561	-1211.55
0.3057,0.6943	-1205.10
0.3679,0.6321	-1211.86
0.4438,0.5562	-1211.10
0.3883,0.6117	-1208.39
0.4835,0.5165	-1214.68
0.4364,0.5636	-1213.82
0.2955,0.7045	-1205.41
0.3548,0.6452	-1211.02
0.4495,0.5505	-1211.99
0.4108,0.5892	-1211.60
0.4909,0.5091	-1214.47
0.3891,0.6109	-1213.37
0.3591,0.6409	-1209.19
0.3375,0.6625	-1211.57
0.4373,0.5627	-1212.30
0.3495,0.6505	-1198.74
0.5086,0.4914	-1214.80
0.3983,0.6017	-1208.65
0.3202,0.6798	-1200.34
0.3449,0.6551	-1207.45
0.4417,0.5583	-1211.46
0.3341,0.6659	-1204.12
0.4885,0.5115	-1214.00
0.4676,0.5324	-1213.60
0.3387,0.6613	-1209.51
0.3316,0.6684	-1202.70
0.4309,0.5691	-1213.01
0.3523,0.6477	-1214.13
0.4957,0.5043	-1214.56
0.4186,0.5814	-1210.04
0.3969,0.6031	-1211.12
0.3276,0.6724	-1212.00
0.3963,0.6037	-1210.70
0.3019,0.6981	-1209.40
0.5045,0.4955	-1214.98
0.3924,0.6076	-1209.36
0.3564,0.6436	-1209.80
0.3002,0.6998	-1212.03
0.3672,0.6328	-1205.35
0.2854,0.7146	-1195.72
0.4998,0.5002	-1214.74
0.3763,0.6237	-1207.66
0.3885,0.6115	-1208.39
0.3294,0.6706	-1204.81
0.3751,0.6249	-1213.76
0.2981,0.7019	-1212.17
0.5526,0.4474	-1214.59
0.3876,0.6124	-1213.86
0.3604,0.6396	-1205.74
0.3433,0.6567	-1208.11
0.3489,0.6511	-1206.81
0.3623,0.6377	-1207.47
0.5111,0.4889	-1214.95
0.3605,0.6395	-1210.33
0.3794,0.6206	-1209.69
0.3561,0.6439	-1208.03
0.3364,0.6636	-1203.46
0.4074,0.5926	-1210.07
0.5172,0.4828	-1215.09
0.3834,0.6166	-1207.34
0.3480,0.6520	-1209.95
0.3582,0.6418	-1207.45
0.3756,0.6244	-1205.11
0.4033,0.5967	-1211.16
0.4784,0.5216	-1214.09
0.3970,0.6030	-1209.87
0.3327,0.6673	-1206.89
0.3607,0.6393	-1206.32
0.3433,0.6567	-1206.82
0.3582,0.6418	-1210.36
0.4116,0.5884	-1210.17
0.4394,0.5606	-1214.54
0.3317,0.6683	-1212.51
0.3921,0.6079	-1210.67
0.4197,0.5803	-1212.99
0.3791,0.6209	-1207.22
0.4148,0.5852	-1209.23
0.4357,0.5643	-1211.75
0.3322,0.6678	-1209.69
0.4217,0.5783	-1212.68
0.4691,0.5309	-1214.38
0.4053,0.5947	-1213.09
0.3758,0.6242	-1213.74
0.4200,0.5800	-1211.06
0.3146,0.6854	-1201.04
0.3882,0.6118	-1208.84
0.3997,0.6003	-1212.76
0.4418,0.5582	-1212.64
0.3393,0.6607	-1207.50
0.4520,0.5480	-1213.06
0.3043,0.6957	-1202.66
0.4217,0.5783	-1212.99
0.4577,0.5423	-1212.68
0.4509,0.5491	-1212.45
0.3782,0.6218	-1206.70
0.3846,0.6154	-1210.19
0.3601,0.6399	-1214.36
0.3482,0.6518	-1211.20
0.5013,0.4987	-1214.79
0.4726,0.5274	-1213.63
0.3708,0.6292	-1204.40
0.3901,0.6099	-1207.54
0.3602,0.6398	-1210.90
0.3939,0.6061	-1207.66
0.4303,0.5697	-1209.92
0.4575,0.5425	-1213.53
0.3221,0.6779	-1207.07
0.4601,0.5399	-1213.42
0.3478,0.6522	-1207.44
0.3480,0.6520	-1208.69
0.4227,0.5773	-1208.01
0.4568,0.5432	-1212.65
0.3270,0.6730	-1209.87
0.4212,0.5788	-1212.04
0.3633,0.6367	-1211.41
0.3223,0.6777	-1209.30
0.4559,0.5441	-1214.03
0.4872,0.5128	-1214.33
0.3445,0.6555	-1210.03
0.4015,0.5985	-1211.94
0.3667,0.6333	-1209.16
0.3210,0.6790	-1206.35
0.4645,0.5355	-1213.81
0.4755,0.5245	-1213.43
0.3863,0.6137	-1213.90
0.4055,0.5945	-1211.18
0.3718,0.6282	-1208.63
0.3031,0.6969	-1208.50
0.5118,0.4882	-1215.01
0.4204,0.5796	-1212.67
0.2965,0.7035	-1206.24
0.4031,0.5969	-1209.59
0.3715,0.6285	-1212.84
0.2693,0.7307	-1193.76
0.4707,0.5293	-1214.15
0.4259,0.5741	-1215.38
0.3115,0.6885	-1207.36
0.4447,0.5553	-1213.36
0.3534,0.6466	-1209.24
0.3148,0.6852	-1211.93
0.4671,0.5329	-1214.25
0.4602,0.5398	-1214.38
0.3133,0.6867	-1205.73
0.3758,0.6242	-1207.14
0.3387,0.6613	-1204.83
0.3121,0.6879	-1205.76
0.4472,0.5528	-1212.54
0.4556,0.5444	-1212.07
0.3069,0.6931	-1208.34
0.4317,0.5683	-1212.19
0.2918,0.7082	-1205.55
0.3749,0.6251	-1209.68
0.4463,0.5537	-1211.44
0.3855,0.6145	-1212.06
0.3095,0.6905	-1204.22
0.4333,0.5667	-1212.49
0.3077,0.6923	-1210.73
0.4067,0.5933	-1209.68
0.4546,0.5454	-1213.85
0.3718,0.6282	-1209.68
0.3303,0.6697	-1206.22
0.4946,0.5054	-1214.45
0.3426,0.6574	-1205.51
0.3445,0.6555	-1208.10
0.4787,0.5213	-1214.18
0.4086,0.5914	-1214.17
0.4178,0.5822	-1213.00
0.4475,0.5525	-1214.02
0.3557,0.6443	-1203.28
0.3170,0.6830	-1207.96
0.4903,0.5097	-1214.42
0.4358,0.5642	-1212.27
0.4615,0.5385	-1214.68
0.4063,0.5937	-1213.84
0.3438,0.6562	-1210.69
0.2996,0.7004	-1204.42
0.4986,0.5014	-1214.70
0.4189,0.5811	-1211.36
0.4179,0.5821	-1211.67
0.4252,0.5748	-1212.39
0.3313,0.6687	-1205.51
0.3050,0.6950	-1204.30
0.4745,0.5255	-1214.41
0.4329,0.5671	-1211.67
0.4062,0.5938	-1209.66
0.4095,0.5905	-1212.68
0.3171,0.6829	-1207.96
0.3221,0.6779	-1208.56
0.4966,0.5034	-1214.53
0.4546,0.5454	-1212.03
0.3343,0.6657	-1202.05
0.4258,0.5742	-1214.19
0.2848,0.7152	-1204.01
0.3330,0.6670	-1208.97
0.4374,0.5626	-1213.06
0.4540,0.5460	-1213.66
0.3250,0.6750	-1205.55
0.4056,0.5944	-1211.94
0.2830,0.7170	-1203.15
0.3355,0.6645	-1213.01
0.4027,0.5973	-1211.55
0.4626,0.5374	-1211.97
0.3397,0.6603	-1208.16
0.3568,0.6432	-1205.08
0.3039,0.6961	-1205.15
0.3540,0.6460	-1206.23
0.3766,0.6234	-1206.66
0.4986,0.5014	-1214.72
0.3291,0.6709	-1209.08
0.3356,0.6644	-1213.69
0.3605,0.6395	-1209.75
0.3019,0.6981	-1211.07
0.3866,0.6134	-1209.74
0.4219,0.5781	-1211.42
0.3699,0.6301	-1210.75
0.3454,0.6546	-1208.09
0.3462,0.6538	-1207.45
0.3493,0.6507	-1208.06
0.4207,0.5793	-1213.63
0.4116,0.5884	-1211.60
0.3665,0.6335	-1210.80
0.3631,0.6369	-1209.17
0.3531,0.6469	-1208.64
0.3698,0.6302	-1210.75
0.3647,0.6353	-1204.16
0.4092,0.5908	-1211.95
0.4047,0.5953	-1212.33
0.3580,0.6420	-1206.86
0.3984,0.6016	-1208.65
0.4113,0.5887	-1209.09
0.3867,0.6133	-1207.89
0.3621,0.6379	-1208.60
0.4382,0.5618	-1213.56
0.3862,0.6138	-1212.05
0.3616,0.6384	-1212.02
0.4132,0.5868	-1209.16
0.3587,0.6413	-1207.45
0.3534,0.6466	-1205.02
0.4174,0.5826	-1211.67
0.3786,0.6214	-1215.64
0.3712,0.6288	-1208.10
0.4161,0.5839	-1211.31
0.3026,0.6974	-1211.03
0.3714,0.6286	-1209.68
0.3864,0.6136	-1209.73
0.4260,0.5740	-1210.91
0.3150,0.6850	-1203.37
0.4565,0.5435	-1213.86
0.3374,0.6626	-1204.15
0.4489,0.5511	-1213.61
0.4181,0.5819	-1210.02
0.4497,0.5503	-1213.01
0.2909,0.7091	-1208.25
0.4502,0.5498	-1212.62
0.3742,0.6258	-1206.08
0.4825,0.5175	-1214.41
0.3778,0.6222	-1209.19
0.5034,0.4966	-1214.81
0.3179,0.6821	-1203.36
0.4624,0.5376	-1213.92
0.3417,0.6583	-1206.82
0.5333,0.4667	-1216.09
0.3956,0.6044	-1210.69
0.4679,0.5321	-1213.48
0.2957,0.7043	-1202.80
0.4277,0.5723	-1211.25
0.3138,0.6862	-1208.07
0.5367,0.4633	-1215.38
0.4567,0.5433	-1212.48
0.4452,0.5548	-1214.03
0.3254,0.6746	-1211.38
0.4093,0.5907	-1212.32
0.2820,0.7180	-1205.99
0.5684,0.4316	-1217.84
0.4059,0.5941	-1208.90
0.4494,0.5506	-1214.02
0.3091,0.6909	-1205.03
0.3766,0.6234	-1208.17
0.2797,0.7203	-1206.11
0.5920,0.4080	-1215.72
0.3837,0.6163	-1210.66
0.4556,0.5444	-1212.07
0.3095,0.6905	-1204.22
0.3860,0.6140	-1210.66
0.2939,0.7061	-1200.21
0.5577,0.4423	-1216.73
0.3404,0.6596	-1208.81
0.4819,0.5181	-1213.82
0.3685,0.6315	-1212.93
0.3615,0.6385	-1209.17
0.2838,0.7162	-1209.60
0.5095,0.4905	-1214.84
0.3698,0.6302	-1209.16
0.4662,0.5338	-1214.10
0.3710,0.6290	-1207.57
0.3752,0.6248	-1211.21
0.3203,0.6797	-1207.11
0.5489,0.4511	-1215.54
0.4326,0.5674	-1210.04
0.4429,0.5571	-1216.10
0.3749,0.6251	-1210.19
0.3452,0.6548	-1206.81
0.3389,0.6611	-1208.84
0.5097,0.4903	-1214.81
0.4395,0.5605	-1212.11
0.4478,0.5522	-1210.46
0.3339,0.6661	-1204.81
0.3480,0.6520	-1207.44
0.3760,0.6240	-1214.24
0.4254,0.5746	-1212.69
0.4115,0.5885	-1213.39
0.4367,0.5633	-1213.56
0.4018,0.5982	-1210.75
0.3322,0.6678	-1209.69
0.3569,0.6431	-1209.21
0.4020,0.5980	-1212.74
0.3715,0.6285	-1208.63
0.4049,0.5951	-1208.47
0.4016,0.5984	-1209.95
0.3575,0.6425	-1213.89
0.3168,0.6832	-1209.51
0.3580,0.6420	-1210.95
0.3767,0.6233	-1205.15
0.3919,0.6081	-1212.43
0.4022,0.5978	-1209.17
0.3393,0.6607	-1204.83
0.3351,0.6649	-1207.55
0.3324,0.6676	-1206.20
0.4308,0.5692	-1212.45
0.3810,0.6190	-1211.64
0.3738,0.6262	-1205.55
0.3334,0.6666	-1211.74
0.3964,0.6036	-1209.86
0.3117,0.6883	-1204.98
0.4114,0.5886	-1213.39
0.3737,0.6263	-1208.65
0.3796,0.6204	-1212.64
0.3874,0.6126	-1208.37
0.4379,0.5621	-1211.07
0.2979,0.7021	-1207.04
0.4304,0.5696	-1212.73
0.3788,0.6212	-1212.66
0.4044,0.5956	-1213.10
0.3545,0.6455	-1209.83
0.4310,0.5690	-1213.29
0.2967,0.7033	-1207.09
0.4065,0.5935	-1209.29
0.4407,0.5593	-1213.33
0.3693,0.6307	-1212.90
0.3593,0.6407	-1207.45
0.3697,0.6303	-1208.09
0.3083,0.6917	-1208.28
0.3736,0.6264	-1211.75
0.4937,0.5063	-1214.73
0.3731,0.6269	-1211.76
0.3643,0.6357	-1210.83
0.3455,0.6545	-1206.17
0.3324,0.6676	-1200.62
0.3609,0.6391	-1210.89
0.5269,0.4731	-1215.68
0.3574,0.6426	-1210.38
0.3800,0.6200	-1205.29
0.3893,0.6107	-1213.81
0.3170,0.6830	-1211.04
0.3394,0.6606	-1209.50
0.5509,0.4491	-1216.21
0.3925,0.6075	-1205.43
0.3732,0.6268	-1211.76
0.3879,0.6121	-1208.84
0.3176,0.6824	-1203.36
0.3821,0.6179	-1212.59
0.5084,0.4916	-1214.79
0.3716,0.6284	-1209.16
0.4737,0.5263	-1213.98
0.3568,0.6432	-1210.39
0.3652,0.6348	-1211.37
0.3940,0.6060	-1207.24
0.4539,0.5461	-1213.66
0.4019,0.5981	-1209.56
0.4268,0.5732	-1211.23
0.3462,0.6538	-1204.27
0.3811,0.6189	-1209.21
0.4575,0.5425	-1214.21
0.4547,0.5453	-1212.94
0.3560,0.6440	-1208.03
0.4441,0.5559	-1213.81
0.3237,0.6763	-1208.51
0.4045,0.5955	-1208.85
0.4780,0.5220	-1213.64
0.4092,0.5908	-1209.38
0.3527,0.6473	-1209.25
0.4486,0.5514	-1213.61
0.3394,0.6606	-1208.83
0.3751,0.6249	-1208.66
0.5135,0.4865	-1215.60
0.4821,0.5179	-1214.40
0.3701,0.6299	-1213.94
0.4413,0.5587	-1210.97
0.3462,0.6538	-1206.81
0.3695,0.6305	-1209.15
0.5557,0.4443	-1216.41
0.4828,0.5172	-1214.55
0.3883,0.6117	-1203.84
0.4499,0.5501	-1213.02
0.3358,0.6642	-1206.18
0.3222,0.6778	-1207.07
0.4715,0.5285	-1212.79
0.5273,0.4727	-1216.57
0.3648,0.6352	-1214.15
0.4507,0.5493	-1210.66
0.3267,0.6733	-1206.98
0.3369,0.6631	-1202.11
0.4346,0.5654	-1209.61
0.5090,0.4910	-1214.83
0.4133,0.5867	-1208.82
0.3865,0.6135	-1209.27
0.2937,0.7063	-1203.72
0.3475,0.6525	-1213.74
0.3844,0.6156	-1210.19
0.4622,0.5378	-1213.46
0.4291,0.5709	-1213.00
0.3546,0.6454	-1214.62
0.3139,0.6861	-1209.63
0.3527,0.6473	-1200.15
0.4127,0.5873	-1211.61
0.4630,0.5370	-1213.93
0.4077,0.5923	-1208.96
0.3615,0.6385	-1210.31
0.3488,0.6512	-1206.81
0.3765,0.6235	-1211.70
0.3655,0.6345	-1209.71
0.4586,0.5414	-1216.04
0.3893,0.6107	-1210.66
0.3803,0.6197	-1209.69
0.3238,0.6762	-1200.41
0.3776,0.6224	-1207.69
0.3439,0.6561	-1207.46
0.4478,0.5522	-1212.56
0.4040,0.5960	-1208.44
0.3801,0.6199	-1207.74
0.3819,0.6181	-1213.07
0.4000,0.6000	-1212.76
0.3471,0.6529	-1204.28
0.4030,0.5970	-1210.76
0.4142,0.5858	-1210.24
0.3751,0.6249	-1214.79
0.4264,0.5736	-1210.62
0.3785,0.6215	-1208.20
0.3371,0.6629	-1206.17
0.3782,0.6218	-1209.19
0.4540,0.5460	-1212.37
0.3331,0.6669	-1208.97
0.3539,0.6461	-1211.65
0.4341,0.5659	-1211.71
0.4021,0.5979	-1212.34
0.4022,0.5978	-1207.98
0.4479,0.5521	-1212.35
0.3904,0.6096	-1209.78
0.3511,0.6489	-1204.36
0.4291,0.5709	-1212.72
0.3595,0.6405	-1208.03
0.3827,0.6173	-1213.53
0.3973,0.6027	-1212.79
0.4201,0.5799	-1208.48
0.3788,0.6212	-1210.68
0.4678,0.5322	-1213.86
0.3336,0.6664	-1210.34
0.3769,0.6231	-1212.70
0.3783,0.6217	-1210.18
0.3562,0.6438	-1200.33
0.3416,0.6584	-1208.13
0.4960,0.5040	-1214.60
0.3933,0.6067	-1209.81
0.3528,0.6472	-1209.86
0.4190,0.5810	-1209.73
0.3911,0.6089	-1210.67
0.3490,0.6510	-1206.81
0.5011,0.4989	-1214.77
0.3608,0.6392	-1212.61
0.4051,0.5949	-1209.25
0.3885,0.6115	-1211.12
0.3721,0.6279	-1208.64
0.3232,0.6768	-1205.57
0.4683,0.5317	-1212.85
0.3253,0.6747	-1204.82
0.4048,0.5952	-1211.17
0.4064,0.5936	-1213.08
0.4237,0.5763	-1212.07
0.3072,0.6928	-1206.70
0.3670,0.6330	-1210.25
0.2983,0.7017	-1205.31
0.3768,0.6232	-1209.18
0.3923,0.6077	-1211.55
0.4094,0.5906	-1211.95
0.3486,0.6514	-1211.81
0.3341,0.6659	-1206.88
0.3170,0.6830	-1211.04
0.3771,0.6229	-1214.20
0.3832,0.6168	-1209.23
0.4450,0.5550	-1212.70
0.3809,0.6191	-1214.55
0.3637,0.6363	-1210.28
0.3325,0.6675	-1204.81
0.3131,0.6869	-1208.10
0.3352,0.6648	-1214.40
0.4675,0.5325	-1214.12
0.3729,0.6271	-1212.80
0.3310,0.6690	-1206.21
0.3236,0.6764	-1203.36
0.3296,0.6704	-1208.35
0.3806,0.6194	-1207.75
0.4809,0.5191	-1214.46
0.3703,0.6297	-1215.00
0.3082,0.6918	-1209.90
0.3024,0.6976	-1207.70
0.3344,0.6656	-1200.68
0.3656,0.6344	-1209.16
0.5166,0.4834	-1214.22
0.4388,0.5612	-1211.60
0.3555,0.6445	-1209.82
0.3437,0.6563	-1203.58
0.3602,0.6398	-1209.18
0.3345,0.6655	-1207.56
0.4794,0.5206	-1214.20
0.3627,0.6373	-1206.91
0.3987,0.6013	-1212.77
0.3764,0.6236	-1209.68
0.4298,0.5702	-1210.75
0.4075,0.5925	-1210.45
0.4884,0.5116	-1214.18
0.3668,0.6332	-1206.43
0.3972,0.6028	-1206.95
0.3613,0.6387	-1206.33
0.4709,0.5291	-1214.16
0.4009,0.5991	-1214.76
0.4621,0.5379	-1214.37
0.3262,0.6738	-1209.17
0.3862,0.6138	-1209.73
0.3498,0.6502	-1210.53
0.5571,0.4429	-1216.25
0.4409,0.5591	-1212.38
0.4576,0.5424	-1212.68
0.3970,0.6030	-1210.28
0.4131,0.5869	-1209.86
0.3571,0.6429	-1213.91
0.5330,0.4670	-1214.75
0.4192,0.5808	-1212.67
0.4281,0.5719	-1210.11
0.4003,0.5997	-1208.71
0.3974,0.6026	-1209.87
0.4124,0.5876	-1209.84
0.4893,0.5107	-1214.52
0.4446,0.5554	-1212.69
0.5093,0.4907	-1215.13
0.3664,0.6336	-1208.61
0.4085,0.5915	-1210.47
0.3479,0.6521	-1202.41
0.5041,0.4959	-1214.76
0.4568,0.5432	-1213.35
0.4577,0.5423	-1214.04
0.3687,0.6313	-1210.23
0.4818,0.5182	-1213.96
0.3602,0.6398	-1209.76
0.5430,0.4570	-1215.21
0.4697,0.5303	-1213.66
0.4460,0.5540	-1214.03
0.3584,0.6416	-1209.20
0.4800,0.5200	-1214.37
0.3880,0.6120	-1211.12
0.5535,0.4465	-1216.10
0.4363,0.5637	-1211.51
0.4416,0.5584	-1212.16
0.3806,0.6194	-1209.21
0.5109,0.4891	-1214.90
0.4302,0.5698	-1211.88
0.5055,0.4945	-1214.73
0.4335,0.5665	-1214.90
0.4514,0.5486	-1213.83
0.3892,0.6108	-1212.47
0.4948,0.5052	-1214.77
0.4178,0.5822	-1213.33
0.5191,0.4809	-1214.68
0.4386,0.5614	-1212.33
0.3833,0.6167	-1211.14
0.4270,0.5730	-1212.11
0.5712,0.4288	-1214.28
0.4171,0.5829	-1211.66
0.4982,0.5018	-1214.65
0.4566,0.5434	-1214.21
0.3387,0.6613	-1211.52
0.4260,0.5740	-1209.71
0.4814,0.5186	-1214.17
0.4339,0.5661	-1211.70
0.4649,0.5351	-1213.25
0.4627,0.5373	-1213.18
0.3352,0.6648	-1205.50
0.4070,0.5930	-1213.07
0.4720,0.5280	-1213.50
0.4161,0.5839	-1213.35
0.4096,0.5904	-1208.30
0.3974,0.6026	-1212.37
0.3490,0.6510	-1211.18
0.4102,0.5898	-1211.23
0.4332,0.5668	-1211.14
0.3908,0.6092	-1211.56
0.4250,0.5750	-1209.67
0.3939,0.6061	-1208.53
0.3168,0.6832	-1207.97
0.4290,0.5710	-1213.86
0.4324,0.5676	-1213.02
0.3891,0.6109	-1208.86
0.4555,0.5445	-1213.68
0.3857,0.6143	-1209.26
0.3283,0.6717	-1206.24
0.4028,0.5972	-1208.79
0.4343,0.5657	-1212.50
0.3919,0.6081	-1210.67
0.4246,0.5754	-1211.17
0.3285,0.6715	-1201.23
0.3618,0.6382	-1206.90
0.4078,0.5922	-1211.20
0.4267,0.5733	-1211.52
0.3667,0.6333	-1211.89
0.3811,0.6189	-1210.67
0.3566,0.6434	-1205.67
0.3587,0.6413	-1212.68
0.4349,0.5651	-1213.82
0.4167,0.5833	-1206.27
0.3386,0.6614	-1210.19
0.4069,0.5931	-1210.06
0.3892,0.6108	-1207.06
0.3517,0.6483	-1209.88
0.4409,0.5591	-1212.86
0.4118,0.5882	-1211.96
0.3382,0.6618	-1207.51
0.4449,0.5551	-1212.48
0.3466,0.6534	-1206.81
0.3076,0.6924	-1209.93
0.4280,0.5720	-1210.39
0.4147,0.5853	-1212.32
0.3547,0.6453	-1204.44
0.3792,0.6208	-1208.21
0.3302,0.6698	-1203.39
0.3435,0.6565	-1208.76
0.4105,0.5895	-1210.51
0.4395,0.5605	-1210.89
0.3375,0.6625	-1210.22
0.3559,0.6441	-1206.84
0.3127,0.6873	-1205.75
0.3407,0.6593	-1203.52
0.4997,0.5003	-1214.74
0.4302,0.5698	-1210.76
0.3191,0.6809	-1213.97
0.3057,0.6943	-1204.28
0.3426,0.6574	-1215.94
0.3481,0.6519	-1203.67
0.5381,0.4619	-1215.11
0.3605,0.6395	-1206.31
0.3293,0.6707	-1211.92
0.2917,0.7083	-1195.79
0.3019,0.6981	-1206.88
0.3140,0.6860	-1210.41
0.5275,0.4725	-1215.92
0.3902,0.6098	-1208.43
0.3498,0.6502	-1209.91
0.3331,0.6669	-1205.50
0.2917,0.7083	-1202.89
0.3328,0.6672	-1204.11
0.5109,0.4891	-1215.08
0.3334,0.6666	-1212.43
0.3763,0.6237	-1210.69
0.3395,0.6605	-1206.17
0.3069,0.6931	-1205.08
0.3376,0.6624	-1208.87
0.4581,0.5419	-1213.71
0.3127,0.6873	-1204.96
0.3960,0.6040	-1209.01
0.3347,0.6653	-1206.18
0.2975,0.7025	-1200.18
0.3632,0.6368	-1211.41
0.5126,0.4874	-1215.09
0.3252,0.6748	-1206.28
0.3877,0.6123	-1209.75
0.3253,0.6747	-1202.63
0.3629,0.6371	-1206.92
0.3669,0.6331	-1206.97
0.5551,0.4449	-1217.05
0.3529,0.6471	-1209.25
0.4238,0.5762	-1209.92
0.3167,0.6833	-1214.13
0.3657,0.6343	-1211.91
0.3632,0.6368	-1206.92
0.4871,0.5129	-1214.94
0.3578,0.6422	-1205.69
0.4361,0.5639	-1215.87
0.3556,0.6444	-1211.60
0.3820,0.6180	-1210.66
0.3565,0.6435	-1208.03
0.4834,0.5166	-1214.49
0.3764,0.6236	-1207.66
0.4123,0.5877	-1210.55
0.3530,0.6470	-1209.25
0.2828,0.7172	-1204.09
0.3725,0.6275	-1211.25
0.4744,0.5256	-1214.00
0.3785,0.6215	-1212.17
0.4148,0.5852	-1210.26
0.3419,0.6581	-1210.09
0.3193,0.6807	-1210.17
0.3788,0.6212	-1206.72
0.4793,0.5207	-1214.78
0.3733,0.6267	-1209.68
0.4085,0.5915	-1210.84
0.3664,0.6336	-1206.42
0.3211,0.6789	-1207.10
0.3651,0.6349	-1210.82
0.4730,0.5270	-1213.86
0.4533,0.5467	-1212.90
0.3982,0.6018	-1210.71
0.4130,0.5870	-1211.62
0.3636,0.6364	-1205.25
0.3848,0.6152	-1207.84
0.4861,0.5139	-1214.68
0.4706,0.5294	-1213.33
0.3129,0.6871	-1204.17
0.3904,0.6096	-1209.33
0.3729,0.6271	-1208.12
0.3601,0.6399	-1209.18
0.4900,0.5100	-1214.45
0.4363,0.5637	-1212.28
0.3479,0.6521	-1209.32
0.3517,0.6483	-1206.82
0.3711,0.6289	-1211.27
0.3906,0.6094	-1212.00
0.4694,0.5306	-1213.89
0.4221,0.5779	-1214.56
0.3714,0.6286	-1207.58
0.3375,0.6625	-1204.82
0.3886,0.6114	-1212.93
0.4052,0.5948	-1211.94
0.4267,0.5733	-1213.59
0.3931,0.6069	-1210.68
0.3654,0.6346	-1206.95
0.3546,0.6454	-1211.03
0.3229,0.6771	-1209.28
0.4010,0.5990	-1209.13
0.4138,0.5862	-1215.46
0.3973,0.6027	-1211.96
0.3287,0.6713	-1205.52
0.4270,0.5730	-1210.05
0.3243,0.6757	-1204.83
0.3626,0.6374	-1200.70
0.3968,0.6032	-1209.03
0.3778,0.6222	-1211.18
0.3506,0.6494	-1214.21
0.3952,0.6048	-1209.84
0.3414,0.6586	-1210.76
0.3638,0.6362	-1209.72
0.3949,0.6051	-1210.69
0.3520,0.6480	-1212.32
0.3485,0.6515	-1202.43
0.4637,0.5363	-1214.95
0.3693,0.6307	-1208.62
0.3133,0.6867	-1206.52
0.3657,0.6343	-1208.06
0.3880,0.6120	-1210.21
0.2920,0.7080	-1203.77
0.4910,0.5090	-1214.66
0.3482,0.6518	-1209.95
0.2875,0.7125	-1203.91
0.3779,0.6221	-1211.68
0.3445,0.6555	-1210.67
0.3030,0.6970	-1205.17
0.4761,0.5239	-1213.75
0.3198,0.6802	-1200.33
0.3480,0.6520	-1208.69
0.4145,0.5855	-1209.22
0.4261,0.5739	-1213.29
0.3286,0.6714	-1204.09
0.4824,0.5176	-1214.33
0.3886,0.6114	-1211.57
0.3389,0.6611	-1213.52
0.3825,0.6175	-1203.96
0.4412,0.5588	-1213.57
0.3775,0.6225	-1206.18
0.4929,0.5071	-1214.53
0.3819,0.6181	-1211.15
0.3995,0.6005	-1211.95
0.3448,0.6552	-1210.02
0.4362,0.5638	-1214.33
0.3841,0.6159	-1211.60
0.4440,0.5560	-1213.36
0.3655,0.6345	-1210.26
0.3780,0.6220	-1208.69
0.3294,0.6706	-1207.65
0.4205,0.5795	-1211.39
0.3460,0.6540	-1211.90
0.3812,0.6188	-1213.57
0.3182,0.6818	-1211.74
0.3507,0.6493	-1206.82
0.3124,0.6876	-1208.12
0.4399,0.5601	-1213.32
0.3057,0.6943	-1206.75
0.3675,0.6325	-1212.41
0.3145,0.6855	-1208.83
0.3612,0.6388	-1209.75
0.3326,0.6674	-1207.59
0.4559,0.5441	-1212.97
0.2900,0.7100	-1205.62
0.3555,0.6445	-1209.82
0.3515,0.6485	-1202.53
0.3715,0.6285	-1211.79
0.3738,0.6262	-1208.13
0.4741,0.5259	-1213.68
0.3453,0.6547	-1206.17
0.3697,0.6303	-1209.15
0.3372,0.6628	-1209.55
0.4233,0.5767	-1209.90
0.3733,0.6267	-1208.13
0.4892,0.5108	-1214.65
0.3865,0.6135	-1212.51
0.3938,0.6062	-1211.11
0.3626,0.6374	-1207.48
0.4012,0.5988	-1214.35
0.3521,0.6479	-1208.65
0.4154,0.5846	-1208.91
0.4096,0.5904	-1211.95
0.4023,0.5977	-1209.57
0.3541,0.6459	-1208.03
0.3894,0.6106	-1209.31
0.3922,0.6078	-1211.55
0.3932,0.6068	-1211.98
0.3321,0.6679	-1205.50
0.4279,0.5721	-1211.84
0.3642,0.6358	-1206.38
0.3798,0.6202	-1209.69
0.3648,0.6352	-1211.93
0.3708,0.6292	-1210.74
0.3466,0.6534	-1211.25
0.3851,0.6149	-1207.85
0.3850,0.6150	-1210.66
0.3831,0.6169	-1209.23
0.3777,0.6223	-1212.18
0.3803,0.6197	-1213.60
0.3696,0.6304	-1211.29
0.3777,0.6223	-1207.69
0.3746,0.6254	-1209.68
0.3758,0.6242	-1207.14
0.3423,0.6577	-1214.00
0.4078,0.5922	-1215.30
0.3484,0.6516	-1204.93
0.3859,0.6141	-1205.09
0.3687,0.6313	-1210.77
0.3520,0.6480	-1209.26
0.3318,0.6682	-1207.60
0.4499,0.5501	-1212.61
0.3663,0.6337	-1208.61
0.3623,0.6377	-1208.04
0.3435,0.6565	-1206.81
0.3396,0.6604	-1209.49
0.3412,0.6588	-1206.82
0.4635,0.5365	-1213.20
0.3649,0.6351	-1208.05
0.3933,0.6067	-1211.98
0.3220,0.6780	-1206.33
0.3766,0.6234	-1209.18
0.3733,0.6267	-1206.57
0.4606,0.5394	-1214.22
0.3591,0.6409	-1206.29
0.4129,0.5871	-1210.21
0.3428,0.6572	-1208.12
0.3336,0.6664	-1206.19
0.3551,0.6449	-1209.82
0.4865,0.5135	-1214.41
0.3869,0.6131	-1209.28
0.3689,0.6311	-1210.77
0.3900,0.6100	-1209.32
0.3448,0.6552	-1211.95
0.3614,0.6386	-1213.73
0.4969,0.5031	-1214.65
0.3370,0.6630	-1210.91
0.3183,0.6817	-1209.45
0.4099,0.5901	-1209.40
0.3565,0.6435	-1207.44
0.3243,0.6757	-1202.62
0.5304,0.4696	-1215.22
0.3909,0.6091	-1211.56
0.3549,0.6451	-1206.84
0.3625,0.6375	-1209.73
0.3922,0.6078	-1210.67
0.3238,0.6762	-1203.36
0.4927,0.5073	-1214.70
0.4320,0.5680	-1213.57
0.3169,0.6831	-1206.43
0.3612,0.6388	-1210.32
0.3364,0.6636	-1208.21
0.2917,0.7083	-1202.89
0.3963,0.6037	-1209.43
0.3893,0.6107	-1207.96
0.3188,0.6812	-1206.39
0.3400,0.6600	-1209.48
0.3484,0.6516	-1209.94
0.3716,0.6284	-1209.68
0.4106,0.5894	-1211.23
0.4020,0.5980	-1205.99
0.3103,0.6897	-1204.20
0.3715,0.6285	-1207.05
0.3261,0.6739	-1206.27
0.3192,0.6808	-1205.63
0.4281,0.5719	-1211.26
0.4028,0.5972	-1209.58
0.3197,0.6803	-1200.33
0.4082,0.5918	-1211.95
0.3509,0.6491	-1203.13
0.3344,0.6656	-1206.19
0.4490,0.5510	-1213.00
0.4108,0.5892	-1210.51
0.3110,0.6890	-1204.99
0.3378,0.6622	-1204.82
0.3652,0.6348	-1209.16
0.3549,0.6451	-1210.42
0.4849,0.5151	-1213.42
0.4300,0.5700	-1213.29
0.3023,0.6977	-1211.05
0.3715,0.6285	-1208.11
0.3714,0.6286	-1211.26
0.3283,0.6717	-1205.52
0.4614,0.5386	-1212.36
0.4142,0.5858	-1210.59
0.3230,0.6770	-1209.27
0.3802,0.6198	-1206.76
0.3730,0.6270	-1211.24
0.3337,0.6663	-1207.57
0.4683,0.5317	-1213.49
0.3994,0.6006	-1209.09
0.2803,0.7197	-1205.13
0.3906,0.6094	-1208.00
0.3871,0.6129	-1209.74
0.3340,0.6660	-1203.43
0.5177,0.4823	-1215.18
0.4316,0.5684	-1213.02
0.3037,0.6963	-1212.63
0.4080,0.5920	-1211.57
0.3904,0.6096	-1213.34
0.3289,0.6711	-1208.37
0.5147,0.4853	-1215.03
0.3598,0.6402	-1204.57
0.2943,0.7057	-1197.58
0.3785,0.6215	-1209.69
0.3753,0.6247	-1214.78
0.3344,0.6656	-1211.01
0.4681,0.5319	-1213.49
0.3570,0.6430	-1200.97
0.2934,0.7066	-1209.88
0.3947,0.6053	-1211.11
0.4102,0.5898	-1210.50
0.3828,0.6172	-1211.62
0.3859,0.6141	-1212.05
0.3667,0.6333	-1211.34
0.2843,0.7157	-1205.87
0.4285,0.5715	-1211.85
0.4068,0.5932	-1211.19
0.3824,0.6176	-1207.79
0.3666,0.6334	-1211.34
0.3672,0.6328	-1205.89
0.3024,0.6976	-1204.35
0.3740,0.6260	-1212.26
0.3649,0.6351	-1208.61
0.3196,0.6804	-1202.60
0.3951,0.6049	-1208.56
0.3549,0.6451	-1207.44
0.2980,0.7020	-1208.75
0.3768,0.6232	-1209.18
0.3324,0.6676	-1204.81
0.3423,0.6577	-1206.82
0.3729,0.6271	-1208.64
0.3205,0.6795	-1210.87
0.3055,0.6945	-1206.75
0.4420,0.5580	-1212.64
0.3404,0.6596	-1206.83
0.3619,0.6381	-1215.41
0.3545,0.6455	-1213.43
0.3399,0.6601	-1206.83
0.3027,0.6973	-1206.85
0.3750,0.6250	-1209.68
0.2975,0.7025	-1206.20
0.3653,0.6347	-1208.61
0.3605,0.6395	-1208.61
0.3861,0.6139	-1210.20
0.3394,0.6606	-1201.50
0.3558,0.6442	-1212.19
0.3515,0.6485	-1206.82
0.3750,0.6250	-1208.15
0.3150,0.6850	-1206.48
0.3981,0.6019	-1211.54
0.3638,0.6362	-1210.84
0.3738,0.6262	-1211.23
0.3281,0.6719	-1206.24
0.4188,0.5812	-1212.67
0.3602,0.6398	-1205.74
0.4262,0.5738	-1211.51
0.3478,0.6522	-1207.44
0.3299,0.6701	-1199.14
0.3264,0.6736	-1206.99
0.3737,0.6263	-1209.16
0.3573,0.6427	-1213.31
0.4173,0.5827	-1211.00
0.3287,0.6713	-1208.38
0.3043,0.6957	-1205.97
0.3628,0.6372	-1206.91
0.3364,0.6636	-1203.46
0.3196,0.6804	-1206.37
0.4264,0.5736	-1213.00
0.3445,0.6555	-1213.25
0.2765,0.7235	-1210.13
0.3746,0.6254	-1208.14
0.3250,0.6750	-1207.74
0.3277,0.6723	-1211.28
0.3538,0.6462	-1206.83
0.3724,0.6276	-1212.81
0.3043,0.6957	-1205.97
0.3349,0.6651	-1211.67
0.3261,0.6739	-1208.44
0.3283,0.6717	-1209.10
0.3061,0.6939	-1208.37
0.4202,0.5798	-1209.77
0.3157,0.6843	-1210.33
0.3473,0.6527	-1211.86
0.3257,0.6743	-1207.73
0.3453,0.6547	-1211.93
0.3276,0.6724	-1205.53
0.3628,0.6372	-1210.86
0.3130,0.6870	-1208.89
0.3650,0.6350	-1211.93
0.3373,0.6627	-1210.90
0.3534,0.6466	-1209.85
0.3418,0.6582	-1202.89
0.3899,0.6101	-1210.67
0.3676,0.6324	-1210.24
0.4036,0.5964	-1211.16
0.3633,0.6367	-1211.97
0.3611,0.6389	-1206.32
0.3973,0.6027	-1211.54
0.3919,0.6081	-1208.48
0.3826,0.6174	-1211.62
0.3542,0.6458	-1208.03
0.3785,0.6215	-1212.17
0.3681,0.6319	-1209.69
0.4449,0.5551	-1211.59
0.3541,0.6459	-1209.84
0.3744,0.6256	-1210.71
0.3979,0.6021	-1208.64
0.3440,0.6560	-1205.52
0.3545,0.6455	-1212.23
0.4221,0.5779	-1212.05
0.3354,0.6646	-1205.50
0.4002,0.5998	-1210.73
0.3881,0.6119	-1211.57
0.3650,0.6350	-1211.37
0.3558,0.6442	-1209.81
0.4449,0.5551	-1211.37
0.3132,0.6868	-1208.09
0.4315,0.5685	-1213.02
0.3651,0.6349	-1209.16
0.3661,0.6339	-1210.25
0.3381,0.6619	-1208.18
0.4992,0.5008	-1214.73
0.3400,0.6600	-1206.17
0.4367,0.5633	-1210.76
0.4173,0.5827	-1212.33
0.3867,0.6133	-1210.66
0.3324,0.6676	-1204.11
0.4558,0.5442	-1212.08
0.3770,0.6230	-1208.68
0.4420,0.5580	-1214.04
0.3710,0.6290	-1210.21
0.3412,0.6588	-1211.43
0.3742,0.6258	-1207.11
0.4343,0.5657	-1211.98
0.3623,0.6377	-1210.87
0.4227,0.5773	-1213.62
0.3666,0.6334	-1208.06
0.3238,0.6762	-1208.51
0.3980,0.6020	-1208.64
0.4554,0.5446	-1213.85
0.3582,0.6418	-1210.36
0.4331,0.5669	-1212.76
0.3707,0.6293	-1211.80
0.3628,0.6372	-1206.91
0.4127,0.5873	-1211.61
0.4523,0.5477	-1214.79
0.3556,0.6444	-1213.97
0.4401,0.5599	-1210.92
0.3539,0.6461	-1205.63
0.3822,0.6178	-1209.22
0.3816,0.6184	-1210.18
0.4544,0.5456	-1213.30
0.3234,0.6766	-1198.93
0.4090,0.5910	-1210.11
0.3640,0.6360	-1210.28
0.3928,0.6072	-1215.47
0.4278,0.5722	-1211.54
0.4593,0.5407	-1213.40
0.3495,0.6505	-1206.81
0.4360,0.5640	-1213.56
0.3903,0.6097	-1210.67
0.3573,0.6427	-1205.09
0.4264,0.5736	-1213.59
0.4674,0.5326	-1212.68
0.3567,0.6433	-1209.21
0.4491,0.5509	-1212.80
0.3681,0.6319	-1212.40
0.3646,0.6354	-1208.61
0.4086,0.5914	-1212.32
0.4501,0.5499	-1212.62
0.3405,0.6595	-1208.15
0.3916,0.6084	-1213.75
0.4023,0.5977	-1209.57
0.3323,0.6677	-1211.09
0.4090,0.5910	-1209.74
0.4860,0.5140	-1214.40
0.3286,0.6714	-1204.09
0.3682,0.6318	-1210.23
0.3698,0.6302	-1209.69
0.3907,0.6093	-1213.78
0.4018,0.5982	-1207.16
0.4724,0.5276	-1214.06
0.3117,0.6883	-1207.35
0.3883,0.6117	-1210.21
0.3406,0.6594	-1210.13
0.4129,0.5871	-1212.67
0.3606,0.6394	-1210.32
0.4778,0.5222	-1214.96
0.2974,0.7026	-1201.90
0.4250,0.5750	-1208.16
0.3190,0.6810	-1207.91
0.3549,0.6451	-1206.84
0.3980,0.6020	-1209.06
0.4465,0.5535	-1212.52
0.3196,0.6804	-1207.89
0.4194,0.5806	-1213.65
0.3494,0.6506	-1208.06
0.3494,0.6506	-1208.06
0.3815,0.6185	-1208.73
0.4367,0.5633	-1213.82
0.3507,0.6493	-1209.90
0.3416,0.6584	-1203.54
0.3719,0.6281	-1205.49
0.3007,0.6993	-1202.71
0.3444,0.6556	-1211.32
0.3815,0.6185	-1208.25
0.3279,0.6721	-1206.96
0.3336,0.6664	-1204.81
0.3435,0.6565	-1207.46
0.3182,0.6818	-1203.36
0.3504,0.6496	-1205.58
0.4031,0.5969	-1208.41
0.3426,0.6574	-1213.33
0.3341,0.6659	-1211.02
0.3505,0.6495	-1208.67
0.3711,0.6289	-1210.21
0.4259,0.5741	-1209.12
0.3520,0.6480	-1209.26
0.3239,0.6761	-1204.09
0.3303,0.6697	-1206.93
0.3766,0.6234	-1208.17
0.3860,0.6140	-1212.52
0.3738,0.6262	-1208.13
0.4048,0.5952	-1210.01
0.3126,0.6874	-1206.54
0.3469,0.6531	-1206.81
0.3596,0.6404	-1209.19
0.4374,0.5626	-1211.80
0.3767,0.6233	-1208.17
0.4040,0.5960	-1208.83
0.3029,0.6971	-1205.18
0.3682,0.6318	-1207.53
0.3698,0.6302	-1211.82
0.3867,0.6133	-1205.59
0.4589,0.5411	-1212.07
0.4601,0.5399	-1214.06
0.2981,0.7019	-1207.89
0.3597,0.6403	-1208.03
0.3207,0.6793	-1207.11
0.4651,0.5349	-1213.12
0.4857,0.5143	-1214.23
0.4437,0.5563	-1211.77
0.3311,0.6689	-1211.13
0.3779,0.6221	-1207.69
0.3861,0.6139	-1209.27
0.5229,0.4771	-1215.52
0.4474,0.5526	-1214.66
0.4067,0.5933	-1211.19
0.3107,0.6893	-1201.81
0.3615,0.6385	-1207.47
0.3840,0.6160	-1209.24
0.5171,0.4829	-1215.37
0.4122,0.5878	-1211.96
0.4534,0.5466	-1214.03
0.3728,0.6272	-1208.64
0.3512,0.6488	-1208.05
0.3509,0.6491	-1210.51
0.4818,0.5182	-1213.16
0.4639,0.5361	-1214.23
0.4753,0.5247	-1213.82
0.3009,0.6991	-1205.23
0.3828,0.6172	-1209.71
0.3308,0.6692	-1207.62
0.4375,0.5625	-1210.80
0.4792,0.5208	-1214.94
0.5290,0.4710	-1215.07
0.2895,0.7105	-1201.15
0.4361,0.5639	-1213.82
0.3413,0.6587	-1206.82
0.4850,0.5150	-1214.62
0.4740,0.5260	-1213.57
0.5653,0.4347	-1215.81
0.2753,0.7247	-1194.74
0.4678,0.5322	-1213.35
0.3383,0.6617	-1205.50
0.4865,0.5135	-1214.31
0.4684,0.5316	-1213.75
0.5727,0.4273	-1212.83
0.2633,0.7367	-1195.84
0.4282,0.5718	-1213.87
0.4081,0.5919	-1213.06
0.4390,0.5610	-1215.04
0.5476,0.4524	-1216.46
0.5720,0.4280	-1216.03
0.2776,0.7224	-1192.83
0.4232,0.5768	-1211.44
0.4251,0.5749	-1211.79
0.4121,0.5879	-1212.32
0.4942,0.5058	-1214.40
0.5784,0.4216	-1215.00
0.2893,0.7107	-1201.15
0.4340,0.5660	-1210.91
0.4258,0.5742	-1213.29
0.3421,0.6579	-1205.51
0.4952,0.5048	-1214.58
0.5709,0.4291	-1214.85
0.3430,0.6570	-1208.77
0.4023,0.5977	-1216.69
0.4353,0.5647	-1213.56
0.3599,0.6401	-1208.03
0.4616,0.5384	-1212.84
0.5543,0.4457	-1216.13
0.3600,0.6400	-1206.31
0.3738,0.6262	-1211.23
0.4184,0.5816	-1213.33
0.4031,0.5969	-1213.51
0.4241,0.5759	-1211.16
0.4968,0.5032	-1214.73
0.3196,0.6804	-1213.93
0.3147,0.6853	-1208.04
0.4341,0.5659	-1211.17
0.4646,0.5354	-1213.24
0.4532,0.5468	-1214.03
0.5392,0.4608	-1215.91
0.3314,0.6686	-1205.51
0.3219,0.6781	-1213.04
0.3995,0.6005	-1207.46
0.4620,0.5380	-1214.53
0.4106,0.5894	-1210.15
0.5700,0.4300	-1218.22
0.3171,0.6829	-1204.89
0.2710,0.7290	-1208.60
0.4237,0.5763	-1211.45
0.4561,0.5439	-1213.68
0.4081,0.5919	-1211.20
0.5577,0.4423	-1215.57
0.3373,0.6627	-1210.90
0.2961,0.7039	-1205.39
0.4669,0.5331	-1213.45
0.4711,0.5289	-1213.46
0.3731,0.6269	-1207.09
0.5993,0.4007	-1219.99
0.3182,0.6818	-1209.45
0.3036,0.6964	-1206.82
0.4576,0.5424	-1212.85
0.4698,0.5302	-1212.81
0.3441,0.6559	-1212.62
0.5759,0.4241	-1215.87
0.3151,0.6849	-1208.80
0.2809,0.7191	-1200.40
0.3988,0.6012	-1208.25
0.4418,0.5582	-1213.34
0.3412,0.6588	-1202.87
0.5068,0.4932	-1215.00
0.3285,0.6715	-1203.38
0.2677,0.7323	-1200.81
0.3814,0.6186	-1209.22
0.4433,0.5567	-1214.03
0.3545,0.6455	-1204.44
0.5107,0.4893	-1214.99
0.2918,0.7082	-1208.20
0.2422,0.7578	-1202.24
0.3852,0.6148	-1211.59
0.3629,0.6371	-1208.04
0.3851,0.6149	-1209.72
0.4897,0.5103	-1214.48
0.3218,0.6782	-1210.06
0.2794,0.7206	-1204.23
0.3447,0.6553	-1202.31
0.3644,0.6356	-1209.16
0.4276,0.5724	-1212.12
0.4995,0.5005	-1214.74
0.3613,0.6387	-1206.33
0.3077,0.6923	-1213.98
0.3345,0.6655	-1206.87
0.3655,0.6345	-1208.06
0.3597,0.6403	-1206.88
0.4693,0.5307	-1213.89
0.4137,0.5863	-1211.62
0.2830,0.7170	-1203.15
0.2927,0.7073	-1196.69
0.3514,0.6486	-1207.43
0.3817,0.6183	-1208.74
0.4174,0.5826	-1211.67
0.4029,0.5971	-1209.97
0.2735,0.7265	-1205.49
0.2990,0.7010	-1200.18
0.3170,0.6830	-1206.43
0.3625,0.6375	-1208.60
0.3780,0.6220	-1209.69
0.3825,0.6175	-1211.14
0.3108,0.6892	-1200.22
0.2627,0.7373	-1201.02
0.3118,0.6882	-1204.18
0.3729,0.6271	-1210.20
0.3570,0.6430	-1210.38
0.3659,0.6341	-1208.06
0.3541,0.6459	-1202.63
0.2950,0.7050	-1205.43
0.3182,0.6818	-1201.07
0.3861,0.6139	-1204.63
0.3610,0.6390	-1208.03
0.3404,0.6596	-1214.10
0.3701,0.6299	-1205.96
0.2930,0.7070	-1202.86
0.3468,0.6532	-1213.14
0.4179,0.5821	-1211.67
0.3749,0.6251	-1208.15
0.3815,0.6185	-1212.12
0.3998,0.6002	-1211.13
0.3183,0.6817	-1215.54
0.3519,0.6481	-1210.49
0.4047,0.5953	-1211.17
0.4080,0.5920	-1210.46
0.3347,0.6653	-1206.18
0.3848,0.6152	-1205.50
0.3183,0.6817	-1210.21
0.4026,0.5974	-1208.78
0.3961,0.6039	-1210.70
0.4372,0.5628	-1212.30
0.3594,0.6406	-1208.61
0.3702,0.6298	-1205.43
0.3081,0.6919	-1213.14
0.4207,0.5793	-1211.39
0.3873,0.6127	-1211.12
0.4644,0.5356	-1213.37
0.3901,0.6099	-1212.01
0.3826,0.6174	-1212.10
0.3570,0.6430	-1210.38
0.4211,0.5789	-1210.77
0.3560,0.6440	-1208.62
0.5215,0.4785	-1215.81
0.4074,0.5926	-1211.57
0.3262,0.6738	-1209.89
0.3933,0.6067	-1208.51
0.4260,0.5740	-1209.12
0.4339,0.5661	-1209.57
0.4590,0.5410	-1213.23
0.3886,0.6114	-1209.30
0.3205,0.6795	-1210.87
0.4063,0.5937	-1210.81
0.4262,0.5738	-1209.73
0.3890,0.6110	-1207.95
0.4953,0.5047	-1214.58
0.3316,0.6684	-1210.41
0.3635,0.6365	-1208.60
0.3836,0.6164	-1213.51
0.4326,0.5674	-1211.94
0.3779,0.6221	-1206.70
0.4819,0.5181	-1214.11
0.3133,0.6867	-1212.01
0.3621,0.6379	-1213.70
0.3376,0.6624	-1208.87
0.3671,0.6329	-1208.61
0.4128,0.5872	-1213.73
0.4429,0.5571	-1212.66
0.3124,0.6876	-1206.54
0.3562,0.6438	-1207.44
0.3471,0.6529	-1212.50
0.4125,0.5875	-1213.03
0.3865,0.6135	-1209.74
0.3917,0.6083	-1207.59
0.3282,0.6718	-1211.97
0.3109,0.6891	-1201.01
0.3496,0.6504	-1208.68
0.4199,0.5801	-1210.41
0.3889,0.6111	-1211.11
0.4065,0.5935	-1214.59
0.3279,0.6721	-1208.40
0.3410,0.6590	-1210.78
0.3842,0.6158	-1210.19
0.4110,0.5890	-1210.52
0.3791,0.6209	-1213.14
0.4268,0.5732	-1213.88
0.3350,0.6650	-1208.24
0.3308,0.6692	-1210.44
0.3808,0.6192	-1213.10
0.4348,0.5652	-1211.46
0.3737,0.6263	-1210.71
0.4567,0.5433	-1212.48
0.3328,0.6672	-1202.72
0.3806,0.6194	-1207.75
0.3883,0.6117	-1208.84
0.4184,0.5816	-1210.03
0.4104,0.5896	-1210.87
0.4201,0.5799	-1210.09
0.3256,0.6744	-1208.46
0.3259,0.6741	-1210.63
0.3784,0.6216	-1209.19
0.3969,0.6031	-1207.78
0.3892,0.6108	-1207.06
0.4288,0.5712	-1211.86
0.3228,0.6772	-1206.32
0.2936,0.7064	-1202.84
0.3988,0.6012	-1208.67
0.4532,0.5468	-1211.77
0.3328,0.6672	-1207.59
0.3678,0.6322	-1210.24
0.3542,0.6458	-1206.83
0.3086,0.6914	-1210.68
0.4033,0.5967	-1213.51
0.3922,0.6078	-1211.11
0.3101,0.6899	-1203.41
0.4077,0.5923	-1213.44
0.3912,0.6088	-1215.98
0.2944,0.7056	-1201.95
0.3991,0.6009	-1212.36
0.4396,0.5604	-1211.62
0.3292,0.6708	-1207.65
0.3986,0.6014	-1211.54
0.3916,0.6084	-1210.67
0.3206,0.6794	-1202.60
0.4234,0.5766	-1209.90
0.4550,0.5450	-1214.57
0.3587,0.6413	-1210.93
0.3880,0.6120	-1208.84
0.3904,0.6096	-1207.55
0.3239,0.6761	-1207.04
0.4229,0.5771	-1213.30
0.4668,0.5332	-1213.05
0.4179,0.5821	-1211.34
0.3681,0.6319	-1205.91
0.4174,0.5826	-1210.33
0.3565,0.6435	-1207.44
0.4282,0.5718	-1213.00
0.4510,0.5490	-1211.86
0.3917,0.6083	-1210.67
0.3701,0.6299	-1208.62
0.4402,0.5598	-1213.09
0.3348,0.6652	-1210.30
0.4570,0.5430	-1211.62
0.4624,0.5376	-1213.32
0.4211,0.5789	-1214.58
0.3481,0.6519	-1209.32
0.4177,0.5823	-1210.01
0.3241,0.6759	-1201.15
0.4347,0.5653	-1210.15
0.4500,0.5500	-1212.22
0.4561,0.5439	-1212.45
0.3521,0.6479	-1205.60
0.3427,0.6573	-1207.47
0.3289,0.6711	-1207.66
0.4698,0.5302	-1212.82
0.4621,0.5379	-1213.46
0.4619,0.5381	-1213.00
0.3876,0.6124	-1209.75
0.4017,0.5983	-1212.74
0.3249,0.6751	-1207.02
0.4180,0.5820	-1212.67
0.4594,0.5406	-1213.40
0.3921,0.6079	-1209.80
0.3408,0.6592	-1207.48
0.4186,0.5814	-1213.98
0.3329,0.6671	-1209.67
0.3713,0.6287	-1210.74
0.4418,0.5582	-1212.40
0.4522,0.5478	-1213.45
0.3755,0.6245	-1208.66
0.4349,0.5651	-1213.30
0.3358,0.6642	-1206.18
0.3572,0.6428	-1211.56
0.4135,0.5865	-1212.67
0.4018,0.5982	-1214.73
0.3415,0.6585	-1208.13
0.3673,0.6327	-1206.44
0.3469,0.6531	-1203.02
0.3633,0.6367	-1206.92
0.3857,0.6143	-1209.73
0.3646,0.6354	-1209.16
0.3208,0.6792	-1202.60
0.3549,0.6451	-1204.45
0.3324,0.6676	-1204.81
0.3565,0.6435	-1210.98
0.3632,0.6368	-1211.41
0.3575,0.6425	-1208.03
0.3391,0.6609	-1206.83
0.3595,0.6405	-1206.30
0.2990,0.7010	-1204.44
0.3609,0.6391	-1208.61
0.3964,0.6036	-1211.96
0.3952,0.6048	-1209.84
0.3601,0.6399	-1208.61
0.3695,0.6305	-1211.29
0.3323,0.6677	-1215.97
0.3339,0.6661	-1210.33
0.3229,0.6771	-1205.57
0.4148,0.5852	-1210.95
0.3552,0.6448	-1208.03
0.3608,0.6392	-1210.32
0.3543,0.6457	-1210.43
0.3313,0.6687	-1212.53
0.3575,0.6425	-1202.76
0.4502,0.5498	-1212.02
0.3243,0.6757	-1201.89
0.3707,0.6293	-1211.80
0.3177,0.6823	-1202.59
0.3026,0.6974	-1206.02
0.3695,0.6305	-1211.83
0.4018,0.5982	-1209.95
0.3519,0.6481	-1211.71
0.3824,0.6176	-1208.27
0.3453,0.6547	-1207.45
0.2996,0.7004	-1203.57
0.3511,0.6489	-1208.66
0.3955,0.6045	-1210.69
0.3474,0.6526	-1208.07
0.3791,0.6209	-1213.14
0.4068,0.5932	-1212.32
0.3690,0.6310	-1209.15
0.3377,0.6623	-1202.80
0.3090,0.6910	-1210.66
0.4163,0.5837	-1213.34
0.3771,0.6229	-1204.16
0.4218,0.5782	-1213.94
0.3029,0.6971	-1207.68
0.3329,0.6671	-1206.20
0.3072,0.6928	-1205.88
0.3494,0.6506	-1206.81
0.3568,0.6432	-1208.03
0.4070,0.5930	-1207.80
0.2926,0.7074	-1205.51
0.3059,0.6941	-1201.82
0.3592,0.6408	-1209.19
0.3597,0.6403	-1205.15
0.3841,0.6159	-1208.77
0.4074,0.5926	-1211.57
0.2926,0.7074	-1207.28
0.2770,0.7230	-1207.22
0.3379,0.6621	-1202.13
0.3296,0.6704	-1206.23
0.3545,0.6455	-1206.83
0.3783,0.6217	-1209.19
0.2904,0.7096	-1199.35
0.2971,0.7029	-1204.49
0.3259,0.6741	-1204.09
0.3374,0.6626	-1215.62
0.3604,0.6396	-1209.18
0.3722,0.6278	-1212.30
0.3038,0.6962	-1201.01
0.2880,0.7120	-1207.51
0.3229,0.6771	-1211.50
0.3250,0.6750	-1207.01
0.3799,0.6201	-1204.30
0.3660,0.6340	-1208.06
0.2626,0.7374	-1206.18
0.2529,0.7471	-1202.61
0.3584,0.6416	-1202.21
0.3454,0.6546	-1210.01
0.4076,0.5924	-1210.08
0.3430,0.6570	-1208.12
0.2971,0.7029	-1201.05
0.2486,0.7514	-1202.90
0.4093,0.5907	-1209.75
0.3773,0.6227	-1210.18
0.3967,0.6033	-1213.63
0.3225,0.6775	-1200.38
0.3293,0.6707	-1204.09
0.2434,0.7566	-1199.88
0.3640,0.6360	-1215.30
0.3987,0.6013	-1212.36
0.4482,0.5518	-1212.98
0.2972,0.7028	-1198.46
0.3414,0.6586	-1208.14
0.2731,0.7269	-1209.43
0.3915,0.6085	-1211.55
0.4163,0.5837	-1212.67
0.4975,0.5025	-1214.62
0.3096,0.6904	-1209.83
0.3284,0.6716	-1198.37
0.2769,0.7231	-1202.42
0.3698,0.6302	-1206.49
0.4125,0.5875	-1212.67
0.4997,0.5003	-1214.74
0.2859,0.7141	-1208.54
0.3479,0.6521	-1209.32
0.3453,0.6547	-1213.85
0.3519,0.6481	-1204.99
0.4032,0.5968	-1208.02
0.5269,0.4731	-1215.68
0.2791,0.7209	-1201.39
0.3587,0.6413	-1210.36
0.3821,0.6179	-1208.26
0.3441,0.6559	-1204.88
0.4124,0.5876	-1214.44
0.5251,0.4749	-1215.10
0.3205,0.6795	-1209.36
0.3749,0.6251	-1213.77
0.4261,0.5739	-1213.00
0.3420,0.6580	-1209.44
0.4502,0.5498	-1211.42
0.5355,0.4645	-1214.21
0.3733,0.6267	-1210.20
0.3145,0.6855	-1204.15
0.4059,0.5941	-1212.32
0.3111,0.6889	-1201.81
0.4171,0.5829	-1211.33
0.4697,0.5303	-1213.78
0.3761,0.6239	-1208.16
0.3361,0.6639	-1206.86
0.3754,0.6246	-1209.17
0.2676,0.7324	-1208.87
0.4107,0.5893	-1211.23
0.4043,0.5957	-1210.00
0.3655,0.6345	-1210.26
0.3990,0.6010	-1209.90
0.3668,0.6332	-1210.25
0.3059,0.6941	-1201.82
0.4120,0.5880	-1210.54
0.3924,0.6076	-1208.92
0.3463,0.6537	-1204.90
0.4479,0.5521	-1211.51
0.3958,0.6042	-1212.81
0.3401,0.6599	-1205.50
0.4414,0.5586	-1212.63
0.4048,0.5952	-1213.10
0.3524,0.6476	-1207.43
0.4332,0.5668	-1212.76
0.3917,0.6083	-1211.99
0.3314,0.6686	-1204.80
0.4921,0.5079	-1214.92
0.4311,0.5689	-1213.85
0.2939,0.7061	-1203.71
0.3956,0.6044	-1211.12
0.3708,0.6292	-1209.69
0.4118,0.5882	-1211.96
0.5010,0.4990	-1214.75
0.4439,0.5561	-1213.13
0.3716,0.6284	-1211.78
0.4002,0.5998	-1209.92
0.3427,0.6573	-1208.77
0.4015,0.5985	-1208.75
0.5058,0.4942	-1214.98
0.3890,0.6110	-1207.05
0.3640,0.6360	-1205.81
0.3781,0.6219	-1214.16
0.3759,0.6241	-1209.68
0.4357,0.5643	-1214.08
0.4863,0.5137	-1214.79
0.4385,0.5615	-1213.56
0.3619,0.6381	-1208.60
0.3851,0.6149	-1209.26
0.3969,0.6031	-1206.93
0.4700,0.5300	-1214.03
0.4932,0.5068	-1214.51
0.4398,0.5602	-1213.08
0.4006,0.5994	-1211.94
0.3889,0.6111	-1214.28
0.3781,0.6219	-1210.68
0.5052,0.4948	-1214.83
0.4620,0.5380	-1213.92
0.4516,0.5484	-1211.89
0.3818,0.6182	-1206.81
0.3854,0.6146	-1209.26
0.3697,0.6303	-1210.76
0.5142,0.4858	-1215.02
0.4646,0.5354	-1213.10
0.4706,0.5294	-1214.04
0.3925,0.6075	-1209.80
0.3620,0.6380	-1208.04
0.3126,0.6874	-1210.48
0.4675,0.5325	-1213.60
0.4547,0.5453	-1213.67
0.5066,0.4934	-1214.91
0.3753,0.6247	-1209.68
0.3756,0.6244	-1210.70
0.3011,0.6989	-1205.23
0.4853,0.5147	-1214.51
0.4237,0.5763	-1212.38
0.5132,0.4868	-1215.53
0.3398,0.6602	-1208.82
0.3391,0.6609	-1204.17
0.2795,0.7205	-1193.81
0.4696,0.5304	-1213.65
0.3830,0.6170	-1214.00
0.4981,0.5019	-1214.69
0.3699,0.6301	-1211.29
0.3392,0.6608	-1206.83
0.3272,0.6728	-1206.25
0.4007,0.5993	-1211.14
0.4038,0.5962	-1211.94
0.4821,0.5179	-1214.04
0.4013,0.5987	-1210.74
0.3588,0.6412	-1209.77
0.3422,0.6578	-1209.43
0.3725,0.6275	-1210.20
0.3706,0.6294	-1208.10
0.4721,0.5279	-1214.62
0.4021,0.5979	-1210.35
0.4056,0.5944	-1210.03
0.3491,0.6509	-1208.68
0.3906,0.6094	-1208.00
0.3780,0.6220	-1212.18
0.4776,0.5224	-1214.52
0.3572,0.6428	-1210.38
0.3617,0.6383	-1205.77
0.3557,0.6443	-1210.41
0.3978,0.6022	-1213.61
0.3580,0.6420	-1207.45
0.4868,0.5132	-1214.26
0.4047,0.5953	-1211.17
0.3542,0.6458	-1205.63
0.3924,0.6076	-1211.11
0.3882,0.6118	-1209.30
0.3130,0.6870	-1206.53
0.5179,0.4821	-1214.90
0.3815,0.6185	-1211.15
0.3058,0.6942	-1208.38
0.3354,0.6646	-1209.60
0.3776,0.6224	-1208.18
0.3134,0.6866	-1208.87
0.5181,0.4819	-1215.70
0.3849,0.6151	-1211.60
0.3438,0.6562	-1206.17
0.3677,0.6323	-1208.07
0.4001,0.5999	-1213.97
0.3465,0.6535	-1206.18
0.5210,0.4790	-1215.44
0.3878,0.6122	-1211.57
0.3316,0.6684	-1211.11
0.3621,0.6379	-1211.44
0.3749,0.6251	-1209.17
0.3528,0.6472	-1203.18
0.5088,0.4912	-1215.08
0.3918,0.6082	-1209.35
0.2867,0.7133	-1204.85
0.3751,0.6249	-1212.23
0.3609,0.6391	-1208.03
0.3342,0.6658	-1214.46
0.4914,0.5086	-1214.73
0.3576,0.6424	-1215.06
0.3184,0.6816	-1206.40
0.3502,0.6498	-1205.58
0.3565,0.6435	-1205.67
0.4060,0.5940	-1209.28
0.4869,0.5131	-1214.58
0.3488,0.6512	-1206.19
0.3814,0.6186	-1212.12
0.3399,0.6601	-1206.83
0.3485,0.6515	-1206.81
0.4093,0.5907	-1209.75
0.4699,0.5301	-1214.02
0.3464,0.6536	-1206.81
0.3437,0.6563	-1204.23
0.3395,0.6605	-1204.17
0.3114,0.6886	-1201.81
0.3870,0.6130	-1211.12
0.4552,0.5448	-1211.34
0.3766,0.6234	-1214.72
0.3554,0.6446	-1210.41
0.3161,0.6839	-1205.68
0.2771,0.7229	-1204.33
0.3415,0.6585	-1208.79
0.3835,0.6165	-1209.71
0.3534,0.6466	-1206.83
0.3569,0.6431	-1204.50
0.3337,0.6663	-1208.27
0.3113,0.6887	-1206.57
0.3157,0.6843	-1208.78
0.4034,0.5966	-1211.16
0.3981,0.6019	-1211.13
0.3551,0.6449	-1209.82
0.3773,0.6227	-1209.68
0.3375,0.6625	-1212.24
0.3590,0.6410	-1210.35
0.4011,0.5989	-1208.33
0.3824,0.6176	-1214.02
0.3515,0.6485	-1208.04
0.3853,0.6147	-1210.66
0.3381,0.6619	-1208.19
0.3608,0.6392	-1205.17
0.4282,0.5718	-1214.74
0.4066,0.5934	-1213.46
0.3624,0.6376	-1208.60
0.3877,0.6123	-1208.83
0.3219,0.6781	-1203.35
0.3664,0.6336	-1206.96
0.4074,0.5926	-1210.82
0.4117,0.5883	-1210.89
0.3117,0.6883	-1207.36
0.3745,0.6255	-1211.22
0.3575,0.6425	-1207.44
0.3507,0.6493	-1207.43
0.3711,0.6289	-1204.41
0.3528,0.6472	-1208.04
0.3225,0.6775	-1201.13
0.3659,0.6341	-1204.76
0.3489,0.6511	-1210.56
0.4054,0.5946	-1212.32
0.3765,0.6235	-1210.19
0.3141,0.6859	-1208.06
0.3244,0.6756	-1207.76
0.4178,0.5822	-1212.00
0.3781,0.6219	-1206.20
0.4197,0.5803	-1210.40
0.3731,0.6269	-1213.83
0.3029,0.6971	-1207.68
0.3797,0.6203	-1209.20
0.3597,0.6403	-1206.88
0.3358,0.6642	-1206.18
0.3856,0.6144	-1210.66
0.4089,0.5911	-1209.00
0.2813,0.7187	-1196.64
0.4095,0.5905	-1210.12
0.3612,0.6388	-1210.89
0.3043,0.6957	-1204.31
0.3994,0.6006	-1210.32
0.3562,0.6438	-1213.36
0.2859,0.7141	-1205.80
0.4160,0.5840	-1211.99
0.3384,0.6616	-1209.52
0.3123,0.6877	-1206.55
0.3797,0.6203	-1206.75
0.3259,0.6741	-1208.45
0.3659,0.6341	-1208.06
0.4405,0.5595	-1214.05
0.3638,0.6362	-1209.16
0.3346,0.6654	-1206.87
0.3622,0.6378	-1208.04
0.3588,0.6412	-1205.13
0.3621,0.6379	-1209.74
0.4066,0.5934	-1209.67
0.3979,0.6021	-1211.54
0.3732,0.6268	-1211.24
0.3631,0.6369	-1211.41
0.3478,0.6522	-1203.67
0.3649,0.6351	-1209.71
0.4158,0.5842	-1210.97
0.4495,0.5505	-1213.82
0.3885,0.6115	-1209.30
0.3789,0.6211	-1210.68
0.3612,0.6388	-1205.18
0.2894,0.7106	-1199.35
0.3909,0.6091	-1208.45
0.4340,0.5660	-1212.77
0.3885,0.6115	-1211.12
0.3905,0.6095	-1211.11
0.3789,0.6211	-1211.67
0.2621,0.7379	-1207.26
0.3815,0.6185	-1209.70
0.3840,0.6160	-1210.19
0.3605,0.6395	-1208.03
0.3150,0.6850	-1207.25
0.3484,0.6516	-1208.69
0.2645,0.7355	-1206.05
0.3484,0.6516	-1209.31
0.3227,0.6773	-1204.10
0.4068,0.5932	-1209.68
0.3018,0.6982	-1211.08
0.3563,0.6437	-1212.17
0.3049,0.6951	-1209.24
0.3374,0.6626	-1204.82
0.3314,0.6686	-1209.02
0.4373,0.5627	-1214.07
0.3517,0.6483	-1206.82
0.3182,0.6818	-1207.93
0.2920,0.7080	-1202.88
0.3364,0.6636	-1209.57
0.3610,0.6390	-1206.89
0.4241,0.5759	-1212.69
0.3012,0.6988	-1209.43
0.3229,0.6771	-1212.98
0.3132,0.6868	-1206.52
0.2801,0.7199	-1205.14
0.3626,0.6374	-1204.09
0.4633,0.5367	-1214.37
0.3603,0.6397	-1207.46
0.3081,0.6919	-1210.71
0.3454,0.6546	-1211.29
0.3072,0.6928	-1197.75
0.3718,0.6282	-1209.68
0.4235,0.5765	-1211.76
0.4014,0.5986	-1211.14
0.2804,0.7196	-1206.07
0.3342,0.6658	-1208.95
0.3507,0.6493	-1208.66
0.3798,0.6202	-1214.10
0.4698,0.5302	-1212.93
0.4237,0.5763	-1212.99
0.3291,0.6709	-1206.23
0.3905,0.6095	-1210.22
0.3518,0.6482	-1207.43
0.4125,0.5875	-1210.90
0.4088,0.5912	-1212.69
0.4419,0.5581	-1211.00
0.3352,0.6648	-1204.13
0.4306,0.5694	-1212.73
0.3397,0.6603	-1208.16
0.3788,0.6212	-1206.23
0.4117,0.5883	-1212.32
0.4293,0.5707	-1212.72
0.3246,0.6754	-1207.02
0.3807,0.6193	-1211.64
0.3430,0.6570	-1212.66
0.3779,0.6221	-1212.18
0.4859,0.5141	-1213.67
0.4118,0.5882	-1210.89
0.3602,0.6398	-1205.73
0.4693,0.5307	-1214.75
0.3442,0.6558	-1211.97
0.3725,0.6275	-1211.25
0.4290,0.5710	-1210.15
0.4047,0.5953	-1208.47
0.3492,0.6508	-1206.81
0.5149,0.4851	-1215.27
0.3785,0.6215	-1207.21
0.4164,0.5836	-1209.97
0.3881,0.6119	-1212.94
0.4730,0.5270	-1213.64
0.3842,0.6158	-1209.24
0.4731,0.5269	-1213.64
0.3482,0.6518	-1205.56
0.3861,0.6139	-1206.48
0.4112,0.5888	-1215.91
0.4888,0.5112	-1214.19
0.3700,0.6300	-1207.56
0.4088,0.5912	-1210.47
0.3046,0.6954	-1204.31
0.4044,0.5956	-1211.55
0.4068,0.5932	-1211.57
0.4465,0.5535	-1212.09
0.4036,0.5964	-1213.89
0.3527,0.6473	-1210.47
0.3509,0.6491	-1201.90
0.3960,0.6040	-1214.07
0.4108,0.5892	-1210.88
0.4640,0.5360	-1213.22
0.3941,0.6059	-1210.25
0.3328,0.6672	-1206.20
0.3723,0.6277	-1210.20
0.3852,0.6148	-1207.85
0.3881,0.6119	-1208.38
0.3965,0.6035	-1212.38
0.3510,0.6490	-1208.05
0.2964,0.7036	-1202.78
0.4032,0.5968	-1213.12
0.3755,0.6245	-1209.17
0.3519,0.6481	-1209.26
0.3890,0.6110	-1209.31
0.3069,0.6931	-1201.00
0.3244,0.6756	-1203.36
0.4091,0.5909	-1209.74
0.4304,0.5696	-1214.13
0.3905,0.6095	-1210.22
0.3947,0.6053	-1213.68
0.3309,0.6691	-1206.21
0.3241,0.6759	-1210.71
0.3585,0.6415	-1210.36
0.3777,0.6223	-1210.68
0.3899,0.6101	-1205.74
0.3961,0.6039	-1211.54
0.3431,0.6569	-1210.06
0.3391,0.6609	-1208.17
0.4405,0.5595	-1212.37
0.3660,0.6340	-1208.61
0.3939,0.6061	-1209.39
0.3760,0.6240	-1207.15
0.3671,0.6329	-1209.16
0.3299,0.6701	-1207.64
0.4270,0.5730	-1213.29
0.3437,0.6563	-1202.93
0.3856,0.6144	-1209.73
0.3466,0.6534	-1207.44
0.3656,0.6344	-1208.06
0.3379,0.6621	-1212.89
0.3804,0.6196	-1212.13
0.3242,0.6758	-1204.83
0.3908,0.6092	-1209.34
0.3288,0.6712	-1209.09
0.3884,0.6116	-1205.67
0.3169,0.6831	-1212.58
0.3905,0.6095	-1208.44
0.3654,0.6346	-1204.74
0.3444,0.6556	-1212.61
0.3289,0.6711	-1206.95
0.3463,0.6537	-1216.97
0.3897,0.6103	-1209.77
0.3867,0.6133	-1211.12
0.3927,0.6073	-1207.62
0.3669,0.6331	-1205.88
0.3584,0.6416	-1203.96
0.3608,0.6392	-1210.32
0.3752,0.6248	-1209.68
0.3507,0.6493	-1209.28
0.4488,0.5512	-1213.41
0.3900,0.6100	-1210.67
0.3284,0.6716	-1204.81
0.3108,0.6892	-1208.98
0.4077,0.5923	-1211.95
0.3095,0.6905	-1209.83
0.4930,0.5070	-1214.70
0.3506,0.6494	-1207.43
0.3407,0.6593	-1208.81
0.3246,0.6754	-1200.43
0.3196,0.6804	-1204.86
0.3526,0.6474	-1207.43
0.4828,0.5172	-1214.20
0.3910,0.6090	-1210.23
0.3291,0.6709	-1204.81
0.3039,0.6961	-1201.84
0.3388,0.6612	-1202.16
0.3558,0.6442	-1212.19
0.4804,0.5196	-1213.75
0.3726,0.6274	-1209.16
0.2977,0.7023	-1201.04
0.3351,0.6649	-1204.13
0.3423,0.6577	-1209.43
0.3451,0.6549	-1208.09
0.4696,0.5304	-1215.24
0.4081,0.5919	-1210.09
0.2939,0.7061	-1200.21
0.3145,0.6855	-1210.39
0.3112,0.6888	-1208.96
0.3647,0.6353	-1214.16
0.4720,0.5280	-1213.50
0.3589,0.6411	-1209.19
0.3101,0.6899	-1204.21
0.3079,0.6921	-1208.29
0.3068,0.6932	-1209.97
0.3759,0.6241	-1210.70
0.5030,0.4970	-1214.79
0.3292,0.6708	-1202.67
0.2867,0.7133	-1211.23
0.3401,0.6599	-1210.80
0.3701,0.6299	-1202.24
0.4138,0.5862	-1211.97
0.5086,0.4914	-1214.90
0.3476,0.6524	-1206.18
0.3327,0.6673	-1202.02
0.3108,0.6892	-1206.59
0.3470,0.6530	-1215.66
0.3724,0.6276	-1212.81
0.5484,0.4516	-1217.47
0.3673,0.6327	-1208.61
0.4119,0.5881	-1210.18
0.3032,0.6968	-1208.50
0.4034,0.5966	-1210.38
0.3766,0.6234	-1212.71
0.5669,0.4331	-1217.47
0.3871,0.6129	-1211.58
0.3451,0.6549	-1209.37
0.3130,0.6870	-1206.53
0.4488,0.5512	-1213.41
0.3603,0.6397	-1209.76
0.5416,0.4584	-1216.01
0.3869,0.6131	-1209.28
0.3456,0.6544	-1210.00
0.3471,0.6529	-1202.39
0.4566,0.5434	-1213.17
0.3673,0.6327	-1208.07
0.5132,0.4868	-1215.32
0.3889,0.6111	-1213.37
0.3454,0.6546	-1204.89
0.3636,0.6364	-1210.84
0.4307,0.5693	-1211.34
0.3937,0.6063	-1211.11
0.5143,0.4857	-1214.97
0.3477,0.6523	-1209.96
0.3398,0.6602	-1208.82
0.3666,0.6334	-1210.25
0.3962,0.6038	-1213.22
0.4612,0.5388	-1213.75
0.4930,0.5070	-1214.70
0.3497,0.6503	-1209.92
0.3765,0.6235	-1208.67
0.3914,0.6086	-1211.11
0.3757,0.6243	-1212.73
0.4600,0.5400	-1213.57
0.4698,0.5302	-1213.54
0.3129,0.6871	-1210.46
0.3894,0.6106	-1215.16
0.4378,0.5622	-1213.81
0.3505,0.6495	-1206.82
0.4658,0.5342	-1214.10
0.4620,0.5380	-1214.37
0.3266,0.6734	-1209.15
0.3485,0.6515	-1208.06
0.4241,0.5759	-1212.69
0.3860,0.6140	-1209.27
0.4587,0.5413	-1213.05
0.4755,0.5245	-1214.41
0.3846,0.6154	-1210.19
0.3434,0.6566	-1213.30
0.4021,0.5979	-1211.15
0.3832,0.6168	-1208.28
0.4964,0.5036	-1214.69
0.4351,0.5649	-1211.21
0.3899,0.6101	-1211.11
0.3739,0.6261	-1210.20
0.3580,0.6420	-1210.95
0.3679,0.6321	-1208.61
0.5015,0.4985	-1214.79
0.4379,0.5621	-1212.06
0.4024,0.5976	-1208.78
0.3690,0.6310	-1212.91
0.3920,0.6080	-1207.60
0.4140,0.5860	-1210.93
0.4568,0.5432	-1212.65
0.4228,0.5772	-1208.32
0.4109,0.5891	-1210.16
0.3734,0.6266	-1210.72
0.4094,0.5906	-1211.22
0.4097,0.5903	-1214.14
0.4490,0.5510	-1211.16
0.4531,0.5469	-1214.21
0.3390,0.6610	-1205.50
0.3785,0.6215	-1208.70
0.3923,0.6077	-1210.24
0.4196,0.5804	-1211.37
0.4722,0.5278	-1213.28
0.4061,0.5939	-1210.80
0.3284,0.6716	-1208.39
0.3532,0.6468	-1212.27
0.3919,0.6081	-1210.67
0.4244,0.5756	-1211.77
0.4275,0.5725	-1211.83
0.3973,0.6027	-1209.46
0.3419,0.6581	-1208.79
0.3506,0.6494	-1208.05
0.3811,0.6189	-1210.18
0.3623,0.6377	-1205.21
0.4577,0.5423	-1214.04
0.3975,0.6025	-1207.80
0.3154,0.6846	-1212.67
0.3613,0.6387	-1208.61
0.3498,0.6502	-1209.91
0.3780,0.6220	-1211.18
0.4302,0.5698	-1212.17
0.4183,0.5817	-1213.33
0.2884,0.7116	-1212.01
0.3472,0.6528	-1208.70
0.3678,0.6322	-1211.86
0.4381,0.5619	-1212.82
0.3917,0.6083	-1211.11
0.4457,0.5543	-1214.24
0.2758,0.7242	-1202.46
0.3378,0.6622	-1211.56
0.3926,0.6074	-1208.06
0.4198,0.5802	-1212.99
0.3669,0.6331	-1209.16
0.4304,0.5696	-1213.57
0.3074,0.6926	-1205.88
0.3837,0.6163	-1206.87
0.3466,0.6534	-1211.25
0.3936,0.6064	-1211.11
0.3947,0.6053	-1209.83
0.4243,0.5757	-1214.52
0.3398,0.6602	-1202.18
0.3623,0.6377	-1209.17
0.4298,0.5702	-1210.18
0.4085,0.5915	-1210.10
0.3806,0.6194	-1212.62
0.4217,0.5783	-1209.83
0.2998,0.7002	-1207.81
0.3699,0.6301	-1210.75
0.4403,0.5597	-1211.89
0.4007,0.5993	-1212.75
0.4037,0.5963	-1211.55
0.4452,0.5548	-1213.81
0.3019,0.6981	-1206.04
0.3948,0.6052	-1208.55
0.4136,0.5864	-1211.62
0.3795,0.6205	-1212.15
0.3510,0.6490	-1210.51
0.4026,0.5974	-1213.13
0.3370,0.6630	-1210.91
0.3955,0.6045	-1207.72
0.3814,0.6186	-1205.83
0.3916,0.6084	-1212.87
0.3506,0.6494	-1207.43
0.4496,0.5504	-1213.21
0.3409,0.6591	-1210.12
0.3600,0.6400	-1203.43
0.4093,0.5907	-1209.75
0.3609,0.6391	-1206.32
0.3286,0.6714	-1206.95
0.4803,0.5197	-1214.22
0.3372,0.6628	-1208.20
0.3323,0.6677	-1211.78
0.4072,0.5928	-1210.44
0.4083,0.5917	-1211.20
0.3198,0.6802	-1209.39
0.4606,0.5394	-1214.69
0.3524,0.6476	-1209.26
0.3404,0.6596	-1205.50
0.4220,0.5780	-1213.31
0.4114,0.5886	-1209.81
0.3059,0.6941	-1205.92
0.4037,0.5963	-1212.33
0.3410,0.6590	-1208.14
0.3509,0.6491	-1216.66
0.4934,0.5066	-1214.41
0.3744,0.6256	-1205.57
0.2801,0.7199	-1208.92
0.4140,0.5860	-1215.10
0.3403,0.6597	-1208.81
0.3557,0.6443	-1215.16
0.4596,0.5404	-1213.57
0.3899,0.6101	-1210.66
0.2723,0.7277	-1203.59
0.4246,0.5754	-1211.78
0.3425,0.6575	-1212.03
0.3266,0.6734	-1199.02
0.3880,0.6120	-1203.82
0.4171,0.5829	-1213.00
0.2929,0.7071	-1212.55
0.4387,0.5613	-1213.07
0.2761,0.7239	-1203.42
0.3527,0.6473	-1211.68
0.3946,0.6054	-1210.26
0.3701,0.6299	-1207.56
0.3243,0.6757	-1203.36
0.4454,0.5546	-1211.84
0.2723,0.7277	-1203.59
0.3573,0.6427	-1206.86
0.4236,0.5764	-1214.53
0.3951,0.6049	-1209.41
0.3438,0.6562	-1207.46
0.4399,0.5601	-1213.81
0.2834,0.7166	-1200.35
0.4023,0.5977	-1211.15
0.3729,0.6271	-1206.56
0.3748,0.6252	-1206.61
0.3461,0.6539	-1205.54
0.4153,0.5847	-1209.59
0.2982,0.7018	-1212.16
0.3683,0.6317	-1213.47
0.3321,0.6679	-1209.00
0.3831,0.6169	-1207.80
0.3811,0.6189	-1207.27
0.3904,0.6096	-1208.44
0.3216,0.6784	-1203.35
0.3300,0.6700	-1208.35
0.3174,0.6826	-1204.89
0.4275,0.5725	-1211.25
0.4155,0.5845	-1213.35
0.3313,0.6687	-1209.72
0.3088,0.6912	-1205.03
0.3045,0.6955	-1206.78
0.3057,0.6943	-1198.54
0.4469,0.5531	-1212.53
0.4201,0.5799	-1213.96
0.3530,0.6470	-1209.86
0.2901,0.7099	-1208.30
0.2841,0.7159	-1197.56
0.2977,0.7023	-1207.05
0.4552,0.5448	-1213.31
0.3692,0.6308	-1213.44
0.3509,0.6491	-1203.74
0.2900,0.7100	-1213.68
0.2856,0.7144	-1205.81
0.3208,0.6792	-1207.85
0.4302,0.5698	-1210.48
0.3995,0.6005	-1209.50
0.3440,0.6560	-1206.17
0.3249,0.6751	-1205.55
0.2630,0.7370	-1205.12
0.3137,0.6863	-1205.73
0.3917,0.6083	-1211.11
0.4102,0.5898	-1213.04
0.3095,0.6905	-1206.63
0.3425,0.6575	-1206.82
0.2909,0.7091	-1207.36
0.2887,0.7113	-1202.06
0.3918,0.6082	-1211.55
0.4059,0.5941	-1208.13
0.3365,0.6635	-1205.50
0.3354,0.6646	-1206.18
0.2958,0.7042	-1207.13
0.2975,0.7025	-1208.78
0.3661,0.6339	-1211.90
0.4255,0.5745	-1211.19
0.3710,0.6290	-1211.27
0.3486,0.6514	-1211.81
0.3001,0.6999	-1204.41
0.3286,0.6714	-1206.95
0.3858,0.6142	-1212.52
0.4158,0.5842	-1211.31
0.3276,0.6724	-1210.56
0.3198,0.6802	-1204.11
0.3324,0.6676	-1209.69
0.3351,0.6649	-1204.81
0.3658,0.6342	-1213.01
0.4343,0.5657	-1211.18
0.3782,0.6218	-1207.20
0.3182,0.6818	-1205.64
0.3082,0.6918	-1206.67
0.3293,0.6707	-1204.81
0.4077,0.5923	-1213.07
0.3935,0.6065	-1208.52
0.3918,0.6082	-1212.43
0.3348,0.6652	-1201.38
0.2990,0.7010	-1209.55
0.4326,0.5674	-1215.46
0.3796,0.6204	-1213.13
0.3506,0.6494	-1203.73
0.3902,0.6098	-1211.11
0.3496,0.6504	-1206.81
0.3155,0.6845	-1208.79
0.3921,0.6079	-1208.04
0.3427,0.6573	-1206.82
0.3540,0.6460	-1209.84
0.3400,0.6600	-1204.84
0.3870,0.6130	-1207.90
0.3583,0.6417	-1213.86
0.3986,0.6014	-1212.77
0.3102,0.6898	-1206.60
0.3576,0.6424	-1209.79
0.3878,0.6122	-1208.38
0.4036,0.5964	-1211.55
0.3711,0.6289	-1208.63
0.3643,0.6357	-1206.93
0.3043,0.6957	-1203.49
0.3549,0.6451	-1210.42
0.3905,0.6095	-1207.55
0.3937,0.6063	-1212.41
0.3861,0.6139	-1210.20
0.3776,0.6224	-1207.18
0.2733,0.7267	-1206.47
0.3545,0.6455	-1201.44
0.3383,0.6617	-1205.50
0.4246,0.5754	-1214.21
0.4095,0.5905	-1211.58
0.3821,0.6179	-1206.34
0.2792,0.7208	-1203.29
0.3611,0.6389	-1208.04
0.3450,0.6550	-1207.45
0.4258,0.5742	-1213.59
0.4430,0.5570	-1211.97
0.3978,0.6022	-1210.71
0.3250,0.6750	-1207.75
0.3307,0.6693	-1205.51
0.3658,0.6342	-1206.41
0.4323,0.5677	-1210.84
0.4495,0.5505	-1213.62
0.3474,0.6526	-1209.33
0.2940,0.7060	-1205.46
0.3124,0.6876	-1208.12
0.3811,0.6189	-1208.24
0.4356,0.5644	-1211.75
0.3677,0.6323	-1209.15
0.3706,0.6294	-1209.16
0.2909,0.7091	-1202.02
0.3228,0.6772	-1202.61
0.4027,0.5973	-1211.94
0.3764,0.6236	-1208.67
0.3955,0.6045	-1214.08
0.3440,0.6560	-1208.75
0.3027,0.6973	-1208.52
0.3425,0.6575	-1204.21
0.4135,0.5865	-1210.57
0.3964,0.6036	-1213.22
0.3521,0.6479	-1208.04
0.3844,0.6156	-1212.07
0.3497,0.6503	-1208.05
0.3582,0.6418	-1205.11
0.3591,0.6409	-1210.93
0.4835,0.5165	-1214.75
0.3865,0.6135	-1210.66
0.3557,0.6443	-1205.66
0.3693,0.6307	-1204.87
0.3556,0.6444	-1208.03
0.3523,0.6477	-1208.04
0.4947,0.5053	-1214.52
0.3909,0.6091	-1212.44
0.3684,0.6316	-1207.54
0.4130,0.5870	-1211.26
0.3904,0.6096	-1211.56
0.3704,0.6296	-1213.40
0.4431,0.5569	-1212.66
0.3985,0.6015	-1210.30
0.4138,0.5862	-1211.62
0.4374,0.5626	-1212.05
0.4127,0.5873	-1213.02
0.3690,0.6310	-1208.08
0.4616,0.5384	-1214.53
0.4370,0.5630	-1212.04
0.4123,0.5877	-1209.84
0.4055,0.5945	-1211.18
0.4402,0.5598	-1213.33
0.3999,0.6001	-1209.51
0.4644,0.5356	-1213.80
0.4246,0.5754	-1211.47
0.4358,0.5642	-1213.56
0.3873,0.6127	-1210.20
0.3987,0.6013	-1213.18
0.4060,0.5940	-1208.52
0.4379,0.5621	-1212.31
0.3684,0.6316	-1202.68
0.4242,0.5758	-1209.94
0.5056,0.4944	-1215.08
0.3661,0.6339	-1210.26
0.3510,0.6490	-1207.43
0.4113,0.5887	-1211.96
0.3609,0.6391	-1214.89
0.4484,0.5516	-1212.16
0.4368,0.5632	-1213.31
0.3282,0.6718	-1209.82
0.3886,0.6114	-1211.12
0.4150,0.5850	-1211.98
0.3807,0.6193	-1209.21
0.4449,0.5551	-1211.15
0.3645,0.6355	-1210.27
0.3244,0.6756	-1215.10
0.3751,0.6249	-1209.68
0.3939,0.6061	-1211.54
0.4053,0.5947	-1208.11
0.4150,0.5850	-1212.32
0.3495,0.6505	-1208.06
0.4507,0.5493	-1211.85
0.3342,0.6658	-1205.50
0.3894,0.6106	-1212.91
0.3669,0.6331	-1206.97
0.3948,0.6052	-1212.82
0.3758,0.6242	-1206.64
0.4210,0.5790	-1212.04
0.3786,0.6214	-1208.20
0.3852,0.6148	-1213.46
0.3742,0.6258	-1207.62
0.3633,0.6367	-1204.68
0.3627,0.6373	-1210.30
0.4136,0.5864	-1209.88
0.4314,0.5686	-1209.98
0.3810,0.6190	-1209.70
0.3655,0.6345	-1211.92
0.3528,0.6472	-1208.65
0.3428,0.6572	-1213.32
0.4058,0.5942	-1211.18
0.4870,0.5130	-1214.37
0.3762,0.6238	-1211.70
0.3771,0.6229	-1207.17
0.3550,0.6450	-1211.62
0.3401,0.6599	-1208.15
0.3994,0.6006	-1211.95
0.4275,0.5725	-1211.83
0.3624,0.6376	-1207.47
0.3731,0.6269	-1208.64
0.3542,0.6458	-1204.43
0.3339,0.6661	-1205.50
0.3738,0.6262	-1205.04
0.4510,0.5490	-1211.66
0.3513,0.6487	-1208.66
0.3876,0.6124	-1214.78
0.3346,0.6654	-1212.37
0.3027,0.6973	-1210.19
0.3974,0.6026	-1210.29
0.4411,0.5589	-1212.86
0.3582,0.6418	-1205.70
0.3726,0.6274	-1207.08
0.3646,0.6354	-1208.05
0.2908,0.7092	-1210.94
0.4464,0.5536	-1212.95
0.4059,0.5941	-1211.18
0.3571,0.6429	-1214.50
0.3646,0.6354	-1210.27
0.3716,0.6284	-1209.16
0.2972,0.7028	-1206.21
0.4012,0.5988	-1209.94
0.4284,0.5716	-1210.41
0.3417,0.6583	-1212.72
0.3506,0.6494	-1211.75
0.4283,0.5717	-1210.98
0.3293,0.6707	-1197.69
0.4062,0.5938	-1213.84
0.3691,0.6309	-1207.01
0.3117,0.6883	-1210.52
0.3345,0.6655	-1206.19
0.4177,0.5823	-1212.34
0.3118,0.6882	-1202.60
0.3413,0.6587	-1210.11
0.3239,0.6761	-1199.68
0.3341,0.6659	-1211.01
0.2868,0.7132	-1203.93
0.3846,0.6154	-1212.54
0.3321,0.6679	-1202.71
0.3644,0.6356	-1205.82
0.3491,0.6509	-1209.30
0.3508,0.6492	-1208.05
0.3243,0.6757	-1209.96
0.3410,0.6590	-1208.80
0.3339,0.6661	-1201.36
0.3478,0.6522	-1210.58
0.3907,0.6093	-1212.89
0.3513,0.6487	-1208.05
0.3799,0.6201	-1213.61
0.3891,0.6109	-1211.56
0.3460,0.6540	-1205.54
0.3438,0.6562	-1208.11
0.3721,0.6279	-1210.21
0.3572,0.6428	-1208.03
0.3537,0.6463	-1203.81
0.3583,0.6417	-1210.36
0.4441,0.5559	-1212.01
0.3185,0.6815	-1207.92
0.3519,0.6481	-1211.10
0.4210,0.5790	-1211.08
0.3808,0.6192	-1211.64
0.4053,0.5947	-1208.87
0.5255,0.4745	-1213.99
0.3230,0.6770	-1208.53
0.3838,0.6162	-1208.77
0.4151,0.5849	-1212.67
0.4175,0.5825	-1214.33
0.4067,0.5933	-1211.19
0.5360,0.4640	-1216.22
0.3451,0.6549	-1206.81
0.4069,0.5931	-1210.44
0.3747,0.6253	-1212.24
0.4567,0.5433	-1213.00
0.4584,0.5416	-1212.71
0.4811,0.5189	-1213.93
0.3323,0.6677	-1206.90
0.3928,0.6072	-1211.98
0.3451,0.6549	-1207.45
0.4559,0.5441	-1212.80
0.4323,0.5677	-1213.57
0.4441,0.5559	-1214.26
0.3181,0.6819	-1201.07
0.4076,0.5924	-1212.32
0.3445,0.6555	-1203.60
0.4249,0.5751	-1210.87
0.4223,0.5777	-1212.37
0.4237,0.5763	-1210.84
0.3617,0.6383	-1211.45
0.3775,0.6225	-1209.18
0.3144,0.6856	-1199.47
0.4269,0.5731	-1212.70
0.3687,0.6313	-1204.31
0.4157,0.5843	-1211.65
0.4073,0.5927	-1212.69
0.3682,0.6318	-1205.38
0.3014,0.6986	-1206.06
0.4707,0.5293	-1213.57
0.3983,0.6017	-1210.71
0.3666,0.6334	-1210.80
0.3913,0.6087	-1210.67
0.3589,0.6411	-1205.71
0.3196,0.6804	-1204.86
0.4722,0.5278	-1213.73
0.3733,0.6267	-1210.20
0.3644,0.6356	-1208.05
0.3311,0.6689	-1208.32
0.3872,0.6128	-1207.45
0.3153,0.6847	-1200.27
0.5335,0.4665	-1216.50
0.3458,0.6542	-1208.72
0.3862,0.6138	-1213.44
0.3471,0.6529	-1203.65
0.3639,0.6361	-1205.81
0.2975,0.7025	-1211.36
0.4650,0.5350	-1214.23
0.3548,0.6452	-1208.63
0.3698,0.6302	-1209.69
0.3618,0.6382	-1208.04
0.3906,0.6094	-1212.45
0.3477,0.6523	-1211.22
0.4368,0.5632	-1212.80
0.3283,0.6717	-1202.66
0.3928,0.6072	-1211.55
