#isoforms=['ENSG00000101294.SE.1.A.up_ENSG00000101294.SE.1.A.SE1_ENSG00000101294.SE.1.A.dn','ENSG00000101294.SE.1.B.up_ENSG00000101294.SE.1.B.dn']	exon_lens=('ENSG00000101294.SE.1.A.up',99),('ENSG00000101294.SE.1.A.SE1',376),('ENSG00000101294.SE.1.A.dn',89),('ENSG00000101294.SE.1.B.up',99),('ENSG00000101294.SE.1.B.dn',89)	iters=5000	burn_in=500	lag=10	percent_accept=87.72	proposal_type=drift	counts=(0,0):288,(1,0):128,(1,1):142	assigned_counts=0:183,1:87	chrom=chr20	strand=+	mRNA_starts=31527484,31527484	mRNA_ends=31545035,31545035
sampled_psi	log_score
0.3598,0.6402	-1741.69
0.3683,0.6317	-1746.56
0.3643,0.6357	-1740.58
0.3207,0.6793	-1732.95
0.3234,0.6766	-1733.72
0.3408,0.6592	-1741.29
0.3744,0.6256	-1738.69
0.3529,0.6471	-1738.10
0.3293,0.6707	-1729.52
0.2999,0.7001	-1727.99
0.3707,0.6293	-1741.73
0.3404,0.6596	-1740.63
0.3707,0.6293	-1745.43
0.3656,0.6344	-1742.24
0.3678,0.6322	-1736.83
0.2787,0.7213	-1735.77
0.3279,0.6721	-1745.25
0.3473,0.6527	-1743.07
0.3218,0.6782	-1740.42
0.3723,0.6277	-1741.22
0.3770,0.6230	-1738.29
0.2815,0.7185	-1724.35
0.3100,0.6900	-1728.94
0.3742,0.6258	-1744.85
0.3152,0.6848	-1731.38
0.4284,0.5716	-1746.48
0.3868,0.6132	-1740.17
0.2970,0.7030	-1735.73
0.2887,0.7113	-1731.60
0.3462,0.6538	-1732.29
0.3273,0.6727	-1733.76
0.4231,0.5769	-1746.66
0.3409,0.6591	-1737.33
0.2697,0.7303	-1738.42
0.3361,0.6639	-1740.04
0.3542,0.6458	-1734.51
0.2968,0.7032	-1731.42
0.4296,0.5704	-1747.36
0.3587,0.6413	-1730.66
0.2717,0.7283	-1733.31
0.3104,0.6896	-1729.75
0.3557,0.6443	-1736.36
0.2960,0.7040	-1737.50
0.3157,0.6843	-1732.93
0.3574,0.6426	-1737.00
0.2827,0.7173	-1729.94
0.3759,0.6241	-1739.76
0.3896,0.6104	-1744.33
0.3288,0.6712	-1737.34
0.3293,0.6707	-1733.07
0.3332,0.6668	-1731.07
0.3100,0.6900	-1737.74
0.4250,0.5750	-1747.90
0.4053,0.5947	-1744.95
0.3468,0.6532	-1734.86
0.3646,0.6354	-1740.02
0.3416,0.6584	-1737.33
0.3112,0.6888	-1741.67
0.3526,0.6474	-1733.23
0.3845,0.6155	-1741.48
0.3509,0.6491	-1743.60
0.3763,0.6237	-1737.75
0.2871,0.7129	-1730.74
0.2695,0.7305	-1740.43
0.3684,0.6316	-1736.31
0.3302,0.6698	-1738.75
0.3042,0.6958	-1729.69
0.3732,0.6268	-1739.68
0.2870,0.7130	-1728.92
0.3479,0.6521	-1737.40
0.3696,0.6304	-1743.85
0.3429,0.6571	-1735.39
0.2738,0.7262	-1734.16
0.3610,0.6390	-1737.12
0.3244,0.6756	-1733.73
0.3468,0.6532	-1741.19
0.3510,0.6490	-1735.61
0.3834,0.6166	-1738.12
0.2629,0.7371	-1741.14
0.3624,0.6376	-1742.82
0.3064,0.6936	-1727.25
0.3591,0.6409	-1743.43
0.3054,0.6946	-1733.81
0.3117,0.6883	-1733.72
0.2691,0.7309	-1724.49
0.3406,0.6594	-1741.95
0.3109,0.6891	-1724.18
0.3207,0.6793	-1735.95
0.3518,0.6482	-1736.86
0.3200,0.6800	-1741.24
0.2852,0.7148	-1738.14
0.3794,0.6206	-1739.39
0.3056,0.6944	-1741.19
0.3397,0.6603	-1737.32
0.3501,0.6499	-1733.73
0.3149,0.6851	-1731.37
0.2990,0.7010	-1731.39
0.4088,0.5912	-1745.39
0.3185,0.6815	-1737.50
0.3640,0.6360	-1745.04
0.3521,0.6479	-1739.30
0.3295,0.6705	-1737.34
0.3032,0.6968	-1733.85
0.4395,0.5605	-1745.85
0.3325,0.6675	-1737.32
0.3997,0.6003	-1742.01
0.3468,0.6532	-1738.02
0.3572,0.6428	-1733.47
0.3112,0.6888	-1732.93
0.3669,0.6331	-1742.24
0.3325,0.6675	-1746.38
0.3865,0.6135	-1743.39
0.3314,0.6686	-1733.11
0.2925,0.7075	-1727.09
0.3137,0.6863	-1739.19
0.3666,0.6334	-1740.06
0.2900,0.7100	-1732.46
0.3307,0.6693	-1742.97
0.3300,0.6700	-1731.67
0.2876,0.7124	-1728.91
0.2692,0.7308	-1733.47
0.3915,0.6085	-1742.14
0.3504,0.6496	-1733.74
0.3120,0.6880	-1740.05
0.3327,0.6673	-1738.71
0.2672,0.7328	-1734.62
0.3009,0.6991	-1738.12
0.3367,0.6633	-1739.35
0.3413,0.6587	-1737.33
0.3712,0.6288	-1743.84
0.3552,0.6448	-1734.56
0.3051,0.6949	-1736.28
0.3223,0.6777	-1737.43
0.3505,0.6495	-1742.38
0.3595,0.6405	-1738.80
0.3522,0.6478	-1732.60
0.3767,0.6233	-1740.29
0.2891,0.7109	-1732.49
0.3408,0.6592	-1737.99
0.3624,0.6376	-1739.43
0.3577,0.6423	-1739.36
0.2902,0.7098	-1742.29
0.3723,0.6277	-1736.52
0.2991,0.7009	-1729.69
0.3317,0.6683	-1733.82
0.3814,0.6186	-1740.92
0.3520,0.6480	-1738.69
0.3024,0.6976	-1734.70
0.3559,0.6441	-1742.89
0.3119,0.6881	-1744.80
0.3376,0.6624	-1731.25
0.3422,0.6578	-1742.57
0.3244,0.6756	-1735.19
0.3063,0.6937	-1724.80
0.3250,0.6750	-1730.08
0.3415,0.6585	-1741.27
0.3426,0.6574	-1739.95
0.3399,0.6601	-1732.68
0.3297,0.6703	-1740.88
0.3597,0.6403	-1739.38
0.3309,0.6691	-1737.33
0.3098,0.6902	-1736.95
0.3832,0.6168	-1740.02
0.3866,0.6134	-1742.00
0.3535,0.6465	-1736.29
0.3681,0.6319	-1738.46
0.3447,0.6553	-1739.29
0.2830,0.7170	-1732.72
0.3294,0.6706	-1733.07
0.3733,0.6267	-1738.64
0.3143,0.6857	-1739.95
0.3390,0.6610	-1739.99
0.3116,0.6884	-1731.35
0.2703,0.7297	-1738.36
0.3455,0.6545	-1738.65
0.3485,0.6515	-1742.42
0.2726,0.7274	-1724.42
0.3552,0.6448	-1733.96
0.3367,0.6633	-1740.70
0.3044,0.6956	-1733.82
0.3434,0.6566	-1738.00
0.3263,0.6737	-1743.17
0.2556,0.7444	-1731.35
0.4023,0.5977	-1746.88
0.3251,0.6749	-1728.62
0.2986,0.7014	-1727.13
0.3476,0.6524	-1746.21
0.3176,0.6824	-1731.40
0.2927,0.7073	-1734.15
0.4049,0.5951	-1745.33
0.3437,0.6563	-1733.47
0.3173,0.6827	-1733.70
0.4050,0.5950	-1745.33
0.3034,0.6966	-1726.36
0.3182,0.6818	-1743.60
0.4372,0.5628	-1745.23
0.3048,0.6952	-1733.82
0.3177,0.6823	-1732.17
0.3853,0.6147	-1745.24
0.2830,0.7170	-1728.07
0.3117,0.6883	-1732.93
0.4085,0.5915	-1746.49
0.3177,0.6823	-1744.40
0.2984,0.7016	-1727.98
0.3937,0.6063	-1744.80
0.2938,0.7062	-1720.95
0.3196,0.6804	-1734.46
0.4182,0.5818	-1742.95
0.3396,0.6604	-1741.98
0.3250,0.6750	-1732.27
0.3873,0.6127	-1742.48
0.3162,0.6838	-1735.24
0.3052,0.6948	-1722.29
0.4009,0.5991	-1745.68
0.3555,0.6445	-1735.76
0.3648,0.6352	-1736.70
0.4022,0.5978	-1741.33
0.3740,0.6260	-1739.19
0.3327,0.6673	-1737.32
0.3962,0.6038	-1738.50
0.3417,0.6583	-1740.61
0.3613,0.6387	-1738.84
0.3820,0.6180	-1742.86
0.3440,0.6560	-1739.29
0.3268,0.6732	-1737.36
0.4144,0.5856	-1741.01
0.3857,0.6143	-1742.91
0.3557,0.6443	-1735.77
0.3309,0.6691	-1733.10
0.3670,0.6330	-1744.42
0.3570,0.6430	-1743.47
0.3755,0.6245	-1743.82
0.3799,0.6201	-1738.91
0.3318,0.6682	-1738.02
0.3527,0.6473	-1737.49
0.3681,0.6319	-1735.22
0.3494,0.6506	-1736.80
0.3897,0.6103	-1737.60
0.3813,0.6187	-1742.85
0.3104,0.6896	-1732.94
0.3825,0.6175	-1739.99
0.3426,0.6574	-1739.95
0.3607,0.6393	-1735.96
0.3653,0.6347	-1735.06
0.3908,0.6092	-1746.56
0.3646,0.6354	-1747.25
0.3598,0.6402	-1744.57
0.3230,0.6770	-1735.19
0.3916,0.6084	-1742.14
0.3830,0.6170	-1740.49
0.4085,0.5915	-1746.49
0.3605,0.6395	-1739.97
0.4191,0.5809	-1747.90
0.3378,0.6622	-1736.64
0.3862,0.6138	-1742.46
0.3965,0.6035	-1743.14
0.4426,0.5574	-1749.48
0.4025,0.5975	-1741.35
0.4226,0.5774	-1747.59
0.3975,0.6025	-1738.60
0.3350,0.6650	-1735.26
0.4038,0.5962	-1741.02
0.4529,0.5471	-1745.49
0.2910,0.7090	-1731.54
0.4086,0.5914	-1743.16
0.3862,0.6138	-1742.46
0.3485,0.6515	-1738.04
0.3476,0.6524	-1737.40
0.4053,0.5947	-1745.33
0.3367,0.6633	-1740.70
0.4146,0.5854	-1749.64
0.3387,0.6613	-1748.03
0.3732,0.6268	-1738.12
0.3392,0.6608	-1737.99
0.4384,0.5616	-1745.55
0.3449,0.6551	-1737.36
0.3301,0.6699	-1740.87
0.3107,0.6893	-1734.53
0.3698,0.6302	-1739.05
0.3613,0.6387	-1737.13
0.3747,0.6253	-1740.75
0.3628,0.6372	-1738.87
0.3280,0.6720	-1737.35
0.2841,0.7159	-1734.52
0.4053,0.5947	-1741.50
0.3415,0.6585	-1736.68
0.3326,0.6674	-1731.05
0.3096,0.6904	-1731.34
0.3465,0.6535	-1734.21
0.3298,0.6702	-1732.37
0.4212,0.5788	-1748.85
0.3000,0.7000	-1738.16
0.3197,0.6803	-1735.21
0.3710,0.6290	-1741.20
0.3132,0.6868	-1736.07
0.3657,0.6343	-1746.65
0.3660,0.6340	-1738.95
0.2852,0.7148	-1731.71
0.3223,0.6777	-1735.20
0.3839,0.6161	-1738.15
0.3454,0.6546	-1732.26
0.3593,0.6407	-1735.33
0.3353,0.6647	-1734.58
0.2814,0.7186	-1727.16
0.2983,0.7017	-1725.41
0.3987,0.6013	-1739.51
0.2951,0.7049	-1730.58
0.3498,0.6502	-1737.43
0.3272,0.6728	-1737.36
0.3116,0.6884	-1734.52
0.3126,0.6874	-1736.87
0.3455,0.6545	-1739.29
0.2629,0.7371	-1732.90
0.2935,0.7065	-1732.36
0.3557,0.6443	-1733.99
0.3505,0.6495	-1738.06
0.2971,0.7029	-1728.83
0.3610,0.6390	-1739.97
0.3188,0.6812	-1735.98
0.2919,0.7081	-1732.40
0.3741,0.6259	-1741.76
0.3859,0.6141	-1743.84
0.3125,0.6875	-1736.87
0.3793,0.6207	-1737.41
0.3234,0.6766	-1741.84
0.2396,0.7604	-1723.64
0.3419,0.6581	-1749.12
0.4288,0.5712	-1743.91
0.3681,0.6319	-1735.22
0.3737,0.6263	-1737.11
0.3442,0.6558	-1741.23
0.2708,0.7292	-1737.33
0.3186,0.6814	-1739.02
0.4427,0.5573	-1744.41
0.4010,0.5990	-1743.27
0.3748,0.6252	-1741.77
0.3557,0.6443	-1738.14
0.3133,0.6867	-1736.07
0.3546,0.6454	-1741.12
0.4524,0.5476	-1747.93
0.3325,0.6675	-1740.80
0.3255,0.6745	-1729.36
0.3478,0.6522	-1743.69
0.2937,0.7063	-1734.99
0.3458,0.6542	-1731.00
0.4434,0.5566	-1746.75
0.3218,0.6782	-1731.47
0.3174,0.6826	-1735.23
0.3350,0.6650	-1732.51
0.3091,0.6909	-1735.36
0.3856,0.6144	-1738.72
0.4632,0.5368	-1749.08
0.3050,0.6950	-1737.93
0.3395,0.6605	-1735.32
0.3646,0.6354	-1740.02
0.3172,0.6828	-1736.00
0.3730,0.6270	-1742.79
0.4380,0.5620	-1745.28
0.2832,0.7168	-1729.93
0.3072,0.6928	-1723.21
0.3914,0.6086	-1743.02
0.3259,0.6741	-1732.29
0.3552,0.6448	-1736.94
0.4194,0.5806	-1746.60
0.2695,0.7305	-1728.47
0.2943,0.7057	-1733.22
0.3596,0.6404	-1745.73
0.3524,0.6476	-1736.87
0.3920,0.6080	-1744.79
0.4112,0.5888	-1742.20
0.2742,0.7258	-1722.45
0.3031,0.6969	-1733.85
0.4018,0.5982	-1742.10
0.3883,0.6117	-1743.87
0.3472,0.6528	-1739.92
0.3718,0.6282	-1743.31
0.3104,0.6896	-1740.92
0.3227,0.6773	-1748.54
0.3910,0.6090	-1738.58
0.4083,0.5917	-1743.90
0.4033,0.5967	-1741.00
0.3817,0.6183	-1741.89
0.3674,0.6326	-1740.61
0.3243,0.6757	-1730.79
0.4161,0.5839	-1746.55
0.4240,0.5760	-1748.82
0.3710,0.6290	-1735.39
0.4284,0.5716	-1746.48
0.4041,0.5959	-1742.98
0.3356,0.6644	-1731.85
0.4511,0.5489	-1748.08
0.3893,0.6107	-1736.22
0.3691,0.6309	-1740.10
0.4116,0.5884	-1744.37
0.3857,0.6143	-1747.10
0.3578,0.6422	-1739.36
0.4096,0.5904	-1745.77
0.3518,0.6482	-1742.97
0.3425,0.6575	-1741.25
0.4150,0.5850	-1745.17
0.3266,0.6734	-1738.81
0.3328,0.6672	-1745.67
0.3915,0.6085	-1737.29
0.4091,0.5909	-1744.29
0.3655,0.6345	-1738.93
0.4621,0.5379	-1748.30
0.4018,0.5982	-1748.07
0.2787,0.7213	-1731.97
0.3864,0.6136	-1741.08
0.3646,0.6354	-1746.69
0.3655,0.6345	-1746.10
0.3894,0.6106	-1745.23
0.3884,0.6116	-1742.96
0.3138,0.6862	-1739.97
0.3947,0.6053	-1740.53
0.3369,0.6631	-1740.70
0.3710,0.6290	-1739.09
0.3459,0.6541	-1735.46
0.3306,0.6694	-1738.03
0.3732,0.6268	-1736.05
0.3921,0.6079	-1743.03
0.3617,0.6383	-1738.85
0.3594,0.6406	-1734.76
0.4054,0.5946	-1743.80
0.3690,0.6310	-1740.64
0.3094,0.6906	-1740.97
0.3683,0.6317	-1739.55
0.2882,0.7118	-1729.81
0.3334,0.6666	-1735.24
0.3944,0.6056	-1746.09
0.3831,0.6169	-1741.92
0.3307,0.6693	-1734.51
0.4069,0.5931	-1744.22
0.3445,0.6555	-1739.93
0.3202,0.6798	-1735.96
0.4107,0.5893	-1743.98
0.4319,0.5681	-1745.75
0.2804,0.7196	-1730.01
0.3636,0.6364	-1744.49
0.3419,0.6581	-1736.68
0.3328,0.6672	-1736.62
0.4065,0.5935	-1745.73
0.4478,0.5522	-1750.08
0.2981,0.7019	-1735.69
0.3548,0.6452	-1741.72
0.3674,0.6326	-1742.79
0.3047,0.6953	-1725.57
0.4310,0.5690	-1745.72
0.4200,0.5800	-1744.99
0.3120,0.6880	-1736.09
0.3507,0.6493	-1744.22
0.3391,0.6609	-1731.98
0.3255,0.6745	-1742.48
0.3706,0.6294	-1740.14
0.3799,0.6201	-1739.90
0.3155,0.6845	-1735.25
0.3236,0.6764	-1741.83
0.3090,0.6910	-1732.14
0.3304,0.6696	-1735.21
0.3869,0.6131	-1742.93
0.4085,0.5915	-1740.57
0.3342,0.6658	-1731.11
0.3554,0.6446	-1735.16
0.3285,0.6715	-1737.35
0.3491,0.6509	-1736.17
0.3694,0.6306	-1738.51
0.4296,0.5704	-1742.54
0.3503,0.6497	-1736.20
0.2923,0.7077	-1735.05
0.2865,0.7135	-1735.32
0.3349,0.6651	-1738.00
0.3184,0.6816	-1737.50
0.4227,0.5773	-1747.27
0.3861,0.6139	-1740.13
0.2969,0.7031	-1729.70
0.2703,0.7297	-1734.39
0.3521,0.6479	-1741.13
0.3700,0.6300	-1735.33
0.3866,0.6134	-1740.16
0.4038,0.5962	-1746.09
0.3011,0.6989	-1727.16
0.2597,0.7403	-1726.86
0.3515,0.6485	-1737.46
0.3186,0.6814	-1737.50
0.3329,0.6671	-1739.40
0.3907,0.6093	-1742.56
0.2958,0.7042	-1734.04
0.2535,0.7465	-1722.88
0.3163,0.6837	-1729.85
0.3003,0.6997	-1736.45
0.3414,0.6586	-1734.70
0.3751,0.6249	-1736.16
0.2947,0.7053	-1734.08
0.2801,0.7199	-1731.91
0.3262,0.6738	-1738.09
0.3185,0.6815	-1732.94
0.3530,0.6470	-1737.49
0.3078,0.6922	-1732.96
0.3062,0.6938	-1743.61
0.3137,0.6863	-1737.63
0.2843,0.7157	-1728.05
0.2962,0.7038	-1735.76
0.3636,0.6364	-1741.69
0.3347,0.6653	-1736.63
0.3011,0.6989	-1738.95
0.3169,0.6831	-1731.40
0.2568,0.7432	-1728.08
0.2943,0.7057	-1728.84
0.3525,0.6475	-1738.09
0.3496,0.6504	-1740.53
0.2934,0.7066	-1727.97
0.3063,0.6937	-1741.15
0.2549,0.7451	-1738.92
0.2660,0.7340	-1727.61
0.3368,0.6632	-1733.25
0.3489,0.6511	-1738.04
0.2976,0.7024	-1736.56
0.2937,0.7063	-1730.60
0.3021,0.6979	-1725.50
0.2364,0.7636	-1728.56
0.3211,0.6789	-1735.20
0.3361,0.6639	-1735.95
0.3094,0.6906	-1736.16
0.2799,0.7201	-1733.80
0.3384,0.6616	-1734.64
0.2453,0.7547	-1732.27
0.3312,0.6688	-1731.70
0.3550,0.6450	-1738.13
0.2852,0.7148	-1737.23
0.3183,0.6817	-1745.89
0.3743,0.6257	-1737.66
0.2373,0.7627	-1731.97
0.3038,0.6962	-1734.66
0.3694,0.6306	-1748.13
0.2616,0.7384	-1730.93
0.3391,0.6609	-1735.32
0.3982,0.6018	-1741.95
0.2537,0.7463	-1728.27
0.3081,0.6919	-1733.76
0.3773,0.6227	-1740.81
0.2796,0.7204	-1730.98
0.3598,0.6402	-1741.11
0.3464,0.6536	-1734.21
0.2647,0.7353	-1727.67
0.2877,0.7123	-1731.63
0.3499,0.6501	-1734.34
0.2930,0.7070	-1730.61
0.3253,0.6747	-1728.63
0.3353,0.6647	-1735.94
0.3111,0.6889	-1732.14
0.2799,0.7201	-1745.15
0.4093,0.5907	-1742.46
0.3092,0.6908	-1735.36
0.3220,0.6780	-1731.48
0.3500,0.6500	-1740.53
0.3011,0.6989	-1735.58
0.2645,0.7355	-1729.72
0.4199,0.5801	-1740.46
0.3074,0.6926	-1737.83
0.3630,0.6370	-1737.75
0.3190,0.6810	-1725.36
0.2940,0.7060	-1739.35
0.2761,0.7239	-1730.16
0.3520,0.6480	-1739.30
0.3071,0.6929	-1739.48
0.3404,0.6596	-1736.66
0.2895,0.7105	-1735.17
0.3266,0.6734	-1733.02
0.3084,0.6916	-1733.76
0.3627,0.6373	-1737.74
0.2829,0.7171	-1733.65
0.2976,0.7024	-1746.01
0.3092,0.6908	-1732.95
0.3360,0.6640	-1735.27
0.3214,0.6786	-1732.21
0.3311,0.6689	-1741.54
0.2812,0.7188	-1726.23
0.3253,0.6747	-1737.38
0.3278,0.6722	-1735.92
0.2953,0.7047	-1736.67
0.2870,0.7130	-1738.03
0.3813,0.6187	-1744.79
0.2917,0.7083	-1735.96
0.3553,0.6447	-1742.31
0.3538,0.6462	-1734.50
0.2794,0.7206	-1728.15
0.2991,0.7009	-1736.50
0.3745,0.6255	-1744.33
0.2842,0.7158	-1734.52
0.3683,0.6317	-1740.09
0.3827,0.6173	-1745.26
0.2900,0.7100	-1737.83
0.3170,0.6830	-1740.61
0.3639,0.6361	-1740.57
0.2988,0.7012	-1734.80
0.3753,0.6247	-1741.27
0.3449,0.6551	-1745.06
0.3389,0.6611	-1731.97
0.3210,0.6790	-1735.20
0.3980,0.6020	-1744.01
0.3776,0.6224	-1741.31
0.3605,0.6395	-1733.66
0.3233,0.6767	-1735.19
0.3472,0.6528	-1741.81
0.2848,0.7152	-1735.41
0.3914,0.6086	-1741.25
0.3479,0.6521	-1732.38
0.3251,0.6749	-1733.73
0.3479,0.6521	-1738.66
0.3356,0.6644	-1738.00
0.3245,0.6755	-1733.73
0.3654,0.6346	-1738.93
0.3629,0.6371	-1736.06
0.3723,0.6277	-1741.74
0.3382,0.6618	-1733.29
0.2710,0.7290	-1742.26
0.3682,0.6318	-1739.55
0.3641,0.6359	-1738.34
0.3893,0.6107	-1738.47
0.3877,0.6123	-1743.40
0.3557,0.6443	-1736.36
0.2738,0.7262	-1735.14
0.3452,0.6548	-1736.73
0.3988,0.6012	-1739.92
0.3994,0.6006	-1745.67
0.3790,0.6210	-1741.84
0.3409,0.6591	-1736.67
0.2604,0.7396	-1724.74
0.3154,0.6846	-1738.35
0.3895,0.6105	-1744.78
0.4122,0.5878	-1746.16
0.4177,0.5823	-1745.58
0.3503,0.6497	-1739.29
0.2278,0.7722	-1720.95
0.2943,0.7057	-1728.84
0.4243,0.5757	-1743.32
0.3969,0.6031	-1741.06
0.4082,0.5918	-1745.01
0.3592,0.6408	-1739.37
0.2460,0.7540	-1718.76
0.2694,0.7306	-1720.49
0.3909,0.6091	-1740.79
0.3606,0.6394	-1735.96
0.3749,0.6251	-1743.31
0.3506,0.6494	-1735.60
0.2659,0.7341	-1723.55
0.3008,0.6992	-1733.06
0.3406,0.6594	-1737.99
0.3573,0.6427	-1738.76
0.3502,0.6498	-1737.44
0.3942,0.6058	-1743.94
0.2886,0.7114	-1721.68
0.3737,0.6263	-1741.24
0.3207,0.6793	-1737.46
0.3259,0.6741	-1733.74
0.3491,0.6509	-1738.04
0.3305,0.6695	-1737.33
0.3074,0.6926	-1732.96
0.3656,0.6344	-1734.53
0.3174,0.6826	-1741.35
0.3110,0.6890	-1732.94
0.3333,0.6667	-1739.40
0.3015,0.6985	-1738.92
0.3464,0.6536	-1743.73
0.3786,0.6214	-1739.35
0.3380,0.6620	-1737.99
0.2663,0.7337	-1730.64
0.3200,0.6800	-1734.45
0.3021,0.6979	-1734.71
0.3084,0.6916	-1735.38
0.3614,0.6386	-1736.56
0.3464,0.6536	-1734.84
0.2732,0.7268	-1736.15
0.3112,0.6888	-1730.55
0.2845,0.7155	-1725.28
0.3591,0.6409	-1737.64
0.3607,0.6393	-1740.54
0.3922,0.6078	-1744.79
0.3221,0.6779	-1730.73
0.2787,0.7213	-1723.41
0.3590,0.6410	-1739.95
0.3627,0.6373	-1739.43
0.3269,0.6731	-1743.86
0.3848,0.6152	-1743.37
0.3394,0.6606	-1733.33
0.3448,0.6552	-1735.44
0.3930,0.6070	-1739.58
0.3793,0.6207	-1738.89
0.2951,0.7049	-1735.80
0.3653,0.6347	-1739.48
0.3485,0.6515	-1741.17
0.3558,0.6442	-1739.93
0.3472,0.6528	-1737.39
0.3890,0.6110	-1744.78
0.3323,0.6677	-1731.74
0.3713,0.6287	-1744.36
0.3297,0.6703	-1737.34
0.3405,0.6595	-1739.31
0.3260,0.6740	-1741.73
0.3133,0.6867	-1733.71
0.3414,0.6586	-1734.70
0.3501,0.6499	-1739.29
0.3388,0.6612	-1733.98
0.3661,0.6339	-1736.75
0.3841,0.6159	-1737.22
0.3650,0.6350	-1734.49
0.2927,0.7073	-1731.50
0.3498,0.6502	-1736.19
0.3443,0.6557	-1740.58
0.2914,0.7086	-1727.98
0.3350,0.6650	-1737.31
0.3496,0.6504	-1737.43
0.2710,0.7290	-1729.40
0.2997,0.7003	-1730.53
0.3463,0.6537	-1739.92
0.2856,0.7144	-1739.95
0.3801,0.6199	-1742.35
0.3369,0.6631	-1733.93
0.2838,0.7162	-1732.69
0.3010,0.6990	-1738.11
0.3422,0.6578	-1740.61
0.3107,0.6893	-1730.55
0.3610,0.6390	-1734.26
0.2893,0.7107	-1727.09
0.3015,0.6985	-1733.89
0.2769,0.7231	-1730.13
0.3544,0.6456	-1738.12
0.3886,0.6114	-1741.60
0.3639,0.6361	-1738.90
0.3221,0.6779	-1738.17
0.3176,0.6824	-1739.05
0.3035,0.6965	-1735.50
0.3938,0.6062	-1741.78
0.3431,0.6569	-1730.20
0.4102,0.5898	-1746.14
0.3421,0.6579	-1734.07
0.3219,0.6781	-1735.94
0.3201,0.6799	-1734.45
0.4297,0.5703	-1744.81
0.3488,0.6512	-1733.05
0.3993,0.6007	-1741.59
0.3724,0.6276	-1738.61
0.3179,0.6821	-1732.93
0.3474,0.6526	-1741.81
0.3969,0.6031	-1743.57
0.3206,0.6794	-1729.20
0.3464,0.6536	-1737.38
0.3586,0.6414	-1738.20
0.3318,0.6682	-1733.12
0.3452,0.6548	-1737.37
0.3603,0.6397	-1738.82
0.3240,0.6760	-1735.19
0.3654,0.6346	-1731.76
0.3490,0.6510	-1737.42
0.3655,0.6345	-1740.59
0.3071,0.6929	-1733.78
0.3925,0.6075	-1738.24
0.2996,0.7004	-1727.99
0.3510,0.6490	-1736.84
0.3944,0.6056	-1741.80
0.4143,0.5857	-1748.61
0.3004,0.6996	-1732.22
0.3239,0.6761	-1732.99
0.3385,0.6615	-1740.00
0.3753,0.6247	-1743.82
0.3861,0.6139	-1737.35
0.4064,0.5936	-1743.83
0.2935,0.7065	-1734.12
0.3488,0.6512	-1737.42
0.3507,0.6493	-1736.83
0.3712,0.6288	-1745.95
0.3715,0.6285	-1744.89
0.4051,0.5949	-1743.02
0.3166,0.6834	-1746.01
0.3196,0.6804	-1726.90
0.3193,0.6807	-1736.73
0.3883,0.6117	-1740.68
0.3510,0.6490	-1740.53
0.3901,0.6099	-1742.55
0.2593,0.7407	-1731.08
0.3647,0.6353	-1738.91
0.3237,0.6763	-1741.09
0.3607,0.6393	-1734.82
0.3704,0.6296	-1740.13
0.3061,0.6939	-1732.98
0.2842,0.7158	-1740.98
0.3904,0.6096	-1742.11
0.3371,0.6629	-1742.72
0.4231,0.5769	-1744.80
0.4284,0.5716	-1744.75
0.2906,0.7094	-1727.09
0.2963,0.7037	-1721.91
0.4232,0.5768	-1744.18
0.3514,0.6486	-1735.62
0.4352,0.5648	-1749.02
0.3818,0.6182	-1743.34
0.2819,0.7181	-1730.90
0.2864,0.7136	-1728.02
0.3553,0.6447	-1734.56
0.4051,0.5949	-1742.25
0.4305,0.5695	-1746.25
0.3758,0.6242	-1739.76
0.2659,0.7341	-1737.77
0.3338,0.6662	-1740.08
0.3397,0.6603	-1743.97
0.4650,0.5350	-1747.30
0.3940,0.6060	-1742.22
0.3921,0.6079	-1743.04
0.3129,0.6871	-1736.08
0.3284,0.6716	-1737.35
0.3469,0.6531	-1735.49
0.4817,0.5183	-1748.54
0.3494,0.6506	-1741.16
0.3839,0.6161	-1741.46
0.2810,0.7190	-1727.17
0.3364,0.6636	-1741.39
0.3471,0.6529	-1733.60
0.4329,0.5671	-1746.06
0.3711,0.6289	-1741.20
0.3817,0.6183	-1743.34
0.2934,0.7066	-1732.36
0.3144,0.6856	-1745.40
0.3617,0.6383	-1738.28
0.4015,0.5985	-1744.49
0.3545,0.6455	-1742.32
0.3376,0.6624	-1738.66
0.2900,0.7100	-1736.05
0.3550,0.6450	-1741.71
0.3978,0.6022	-1743.59
0.4315,0.5685	-1746.84
0.4041,0.5959	-1747.65
0.3150,0.6850	-1728.26
0.2798,0.7202	-1734.75
0.3077,0.6923	-1739.45
0.3273,0.6727	-1737.36
0.4599,0.5401	-1747.09
0.3327,0.6673	-1735.23
0.3031,0.6969	-1728.85
0.3110,0.6890	-1732.94
0.3436,0.6564	-1739.94
0.3802,0.6198	-1741.86
0.4125,0.5875	-1741.21
0.3286,0.6714	-1736.63
0.3051,0.6949	-1732.17
0.2647,0.7353	-1723.58
0.3158,0.6842	-1736.79
0.3448,0.6552	-1736.72
0.3958,0.6042	-1743.55
0.3166,0.6834	-1728.31
0.2897,0.7103	-1730.68
0.2662,0.7338	-1729.63
0.3057,0.6943	-1734.62
0.3591,0.6409	-1737.64
0.4106,0.5894	-1747.23
0.3376,0.6624	-1737.32
0.3072,0.6928	-1737.03
0.2785,0.7215	-1731.02
0.3210,0.6790	-1728.46
0.3694,0.6306	-1738.51
0.3948,0.6052	-1744.81
0.3573,0.6427	-1744.63
0.3022,0.6978	-1726.34
0.2762,0.7238	-1731.12
0.3220,0.6780	-1737.43
0.3857,0.6143	-1747.10
0.3404,0.6596	-1736.67
0.4090,0.5910	-1746.13
0.3647,0.6353	-1737.80
0.3150,0.6850	-1734.48
0.3287,0.6713	-1738.77
0.3371,0.6629	-1741.37
0.3683,0.6317	-1737.93
0.3944,0.6056	-1749.52
0.3800,0.6200	-1740.88
0.3207,0.6793	-1735.95
0.3450,0.6550	-1739.29
0.4230,0.5770	-1743.24
0.4348,0.5652	-1745.88
0.4117,0.5883	-1740.80
0.3117,0.6883	-1731.35
0.3754,0.6246	-1743.82
0.3395,0.6605	-1736.66
0.4100,0.5900	-1741.77
0.4416,0.5584	-1748.78
0.3426,0.6574	-1743.21
0.2814,0.7186	-1732.79
0.3036,0.6964	-1743.80
0.3520,0.6480	-1742.35
0.3914,0.6086	-1742.14
0.4186,0.5814	-1745.60
0.2965,0.7035	-1739.20
0.2736,0.7264	-1734.17
0.3272,0.6728	-1735.92
0.3829,0.6171	-1741.92
0.3988,0.6012	-1741.98
0.3903,0.6097	-1743.44
0.2993,0.7007	-1728.84
0.3259,0.6741	-1741.01
0.3586,0.6414	-1737.62
0.3595,0.6405	-1734.76
0.3698,0.6302	-1734.26
0.3557,0.6443	-1739.93
0.2836,0.7164	-1743.81
0.3462,0.6538	-1735.47
0.3601,0.6399	-1735.36
0.3280,0.6720	-1738.07
0.3981,0.6019	-1744.43
0.3818,0.6182	-1737.55
0.2622,0.7378	-1735.02
0.3545,0.6455	-1733.33
0.3146,0.6854	-1740.72
0.3389,0.6611	-1739.99
0.3513,0.6487	-1739.91
0.2998,0.7002	-1742.41
0.3013,0.6987	-1731.37
0.3389,0.6611	-1737.99
0.3315,0.6685	-1735.92
0.3450,0.6550	-1738.01
0.3622,0.6378	-1734.33
0.3173,0.6827	-1732.93
0.2891,0.7109	-1734.29
0.3077,0.6923	-1730.53
0.3224,0.6776	-1736.68
0.3329,0.6671	-1734.54
0.3317,0.6683	-1733.82
0.3254,0.6746	-1733.73
0.2892,0.7108	-1735.18
0.2965,0.7035	-1731.43
0.3439,0.6561	-1741.23
0.3330,0.6670	-1740.79
0.3174,0.6826	-1732.93
0.2819,0.7181	-1730.90
0.3186,0.6814	-1732.94
0.2797,0.7203	-1724.36
0.3380,0.6620	-1733.28
0.3460,0.6540	-1740.56
0.3527,0.6473	-1742.34
0.2408,0.7592	-1732.74
0.3230,0.6770	-1734.45
0.3516,0.6484	-1739.30
0.3255,0.6745	-1740.29
0.2990,0.7010	-1740.77
0.3086,0.6914	-1733.76
0.2866,0.7134	-1733.49
0.2932,0.7068	-1736.77
0.2990,0.7010	-1733.10
0.3169,0.6831	-1746.75
0.2982,0.7018	-1738.25
0.3243,0.6757	-1732.26
0.2790,0.7210	-1735.75
0.2843,0.7157	-1734.51
0.3229,0.6771	-1732.97
0.3056,0.6944	-1738.73
0.3061,0.6939	-1727.25
0.3724,0.6276	-1739.13
0.3570,0.6430	-1739.93
0.2924,0.7076	-1733.28
0.3393,0.6607	-1737.32
0.3123,0.6877	-1732.14
0.3353,0.6647	-1732.52
0.3904,0.6096	-1749.24
0.3082,0.6918	-1753.98
0.3251,0.6749	-1734.46
0.2566,0.7434	-1732.34
0.3271,0.6729	-1736.64
0.4292,0.5708	-1746.21
0.4226,0.5774	-1742.90
0.3226,0.6774	-1732.97
0.3199,0.6801	-1732.19
0.3125,0.6875	-1739.24
0.3001,0.6999	-1722.07
0.4011,0.5989	-1744.48
0.4105,0.5895	-1743.61
0.2862,0.7138	-1732.59
0.3031,0.6969	-1727.19
0.2750,0.7250	-1726.33
0.2659,0.7341	-1732.69
0.3670,0.6330	-1742.79
0.4079,0.5921	-1745.37
0.3171,0.6829	-1726.79
0.3118,0.6882	-1732.14
0.2483,0.7517	-1720.90
0.2880,0.7120	-1730.72
0.3804,0.6196	-1739.42
0.3944,0.6056	-1741.80
0.3137,0.6863	-1726.66
0.3063,0.6937	-1737.06
0.2487,0.7513	-1730.84
0.2956,0.7044	-1735.79
0.4095,0.5905	-1743.94
0.4079,0.5921	-1744.63
0.3039,0.6961	-1733.01
0.3115,0.6885	-1736.11
0.2560,0.7440	-1730.26
0.3146,0.6854	-1737.60
0.3891,0.6109	-1739.81
0.3511,0.6489	-1736.23
0.3068,0.6932	-1726.45
0.2685,0.7315	-1728.51
0.2813,0.7187	-1725.29
0.3112,0.6888	-1726.58
0.3874,0.6126	-1739.73
0.3710,0.6290	-1739.62
0.2969,0.7031	-1731.42
0.2923,0.7077	-1733.28
0.3136,0.6864	-1736.84
0.3524,0.6476	-1736.26
0.3865,0.6135	-1741.54
0.3804,0.6196	-1740.40
0.3299,0.6701	-1740.17
0.2920,0.7080	-1727.97
0.2899,0.7101	-1734.26
0.3732,0.6268	-1738.64
0.4068,0.5932	-1744.98
0.3642,0.6358	-1736.67
0.3428,0.6572	-1741.90
0.2935,0.7065	-1735.88
0.2976,0.7024	-1727.98
0.3693,0.6307	-1740.11
0.3823,0.6177	-1744.30
0.3817,0.6183	-1742.37
0.3297,0.6703	-1734.50
0.3592,0.6408	-1738.80
0.2990,0.7010	-1730.54
0.4140,0.5860	-1742.71
0.3635,0.6365	-1732.16
0.4219,0.5781	-1744.43
0.3489,0.6511	-1734.92
0.3783,0.6217	-1737.36
0.2608,0.7392	-1737.23
0.3923,0.6077	-1740.42
0.3302,0.6698	-1740.16
0.4196,0.5804	-1743.36
0.3176,0.6824	-1737.52
0.3612,0.6388	-1738.84
0.2929,0.7071	-1734.14
0.3677,0.6323	-1746.58
0.3296,0.6704	-1740.88
0.4196,0.5804	-1742.06
0.3155,0.6845	-1735.25
0.3518,0.6482	-1738.69
0.2868,0.7132	-1727.10
0.3566,0.6434	-1736.39
0.3640,0.6360	-1739.46
0.4054,0.5946	-1741.50
0.3152,0.6848	-1739.14
0.3272,0.6728	-1733.03
0.3199,0.6801	-1739.74
0.3487,0.6513	-1731.79
0.3453,0.6547	-1743.77
0.3993,0.6007	-1738.73
0.3163,0.6837	-1737.55
0.3778,0.6222	-1741.82
0.3384,0.6616	-1734.64
0.3129,0.6871	-1732.93
0.3371,0.6629	-1742.72
0.4075,0.5925	-1741.62
0.3698,0.6302	-1737.98
0.3771,0.6229	-1741.30
0.3732,0.6268	-1740.20
0.3569,0.6431	-1741.70
0.3070,0.6930	-1735.41
0.4035,0.5965	-1742.18
0.3780,0.6220	-1737.84
0.4110,0.5890	-1743.99
0.3870,0.6130	-1743.85
0.3392,0.6608	-1739.99
0.2872,0.7128	-1731.65
0.4233,0.5767	-1744.50
0.4013,0.5987	-1740.48
0.4168,0.5832	-1745.22
0.3990,0.6010	-1739.12
0.3756,0.6244	-1737.72
0.2516,0.7484	-1737.13
0.4160,0.5840	-1741.81
0.3748,0.6252	-1743.31
0.3587,0.6413	-1748.66
0.3905,0.6095	-1739.44
0.3330,0.6670	-1742.88
0.2776,0.7224	-1732.02
0.3473,0.6527	-1739.29
0.3994,0.6006	-1746.08
0.3645,0.6355	-1734.46
0.3535,0.6465	-1747.16
0.3305,0.6695	-1734.51
0.3130,0.6870	-1736.07
0.3507,0.6493	-1738.06
0.3706,0.6294	-1742.25
0.3244,0.6756	-1733.73
0.3686,0.6314	-1736.33
0.3510,0.6490	-1739.91
0.3366,0.6634	-1736.63
0.3994,0.6006	-1739.55
0.3677,0.6323	-1741.70
0.3699,0.6301	-1739.59
0.3682,0.6318	-1739.54
0.3653,0.6347	-1736.17
0.3524,0.6476	-1747.21
0.3727,0.6273	-1741.75
0.3877,0.6123	-1738.38
0.4038,0.5962	-1742.19
0.3545,0.6455	-1738.72
0.3821,0.6179	-1744.78
0.3211,0.6789	-1735.20
0.3191,0.6809	-1741.28
0.3685,0.6315	-1736.32
0.4077,0.5923	-1743.50
0.3421,0.6579	-1732.76
0.3918,0.6082	-1740.83
0.3615,0.6385	-1735.43
0.3241,0.6759	-1736.66
0.3801,0.6199	-1743.33
0.4071,0.5929	-1741.22
0.3065,0.6935	-1725.62
0.3827,0.6173	-1738.57
0.3423,0.6577	-1734.73
0.3034,0.6966	-1728.03
0.3455,0.6545	-1747.59
0.3239,0.6761	-1735.93
0.2884,0.7116	-1734.32
0.3712,0.6288	-1733.83
0.3205,0.6795	-1735.96
0.3124,0.6876	-1740.82
0.3198,0.6802	-1729.93
0.2896,0.7104	-1727.09
0.3091,0.6909	-1737.77
0.3079,0.6921	-1733.77
0.3189,0.6811	-1737.49
0.3782,0.6218	-1741.33
0.3005,0.6995	-1741.52
0.3231,0.6769	-1741.11
0.2878,0.7122	-1728.00
0.2711,0.7289	-1727.42
0.3326,0.6674	-1742.19
0.3813,0.6187	-1745.27
0.3286,0.6714	-1744.49
0.3248,0.6752	-1733.00
0.3257,0.6743	-1744.66
0.3055,0.6945	-1742.01
0.3413,0.6587	-1737.99
0.3525,0.6475	-1736.87
0.3137,0.6863	-1732.14
0.3073,0.6927	-1726.46
0.3462,0.6538	-1738.02
0.3283,0.6717	-1735.92
0.2963,0.7037	-1739.21
0.2994,0.7006	-1739.04
0.3187,0.6813	-1731.42
0.3076,0.6924	-1732.96
0.3135,0.6865	-1736.06
0.3002,0.6998	-1728.84
0.2940,0.7060	-1736.73
0.3188,0.6812	-1732.18
0.3557,0.6443	-1741.71
0.3312,0.6688	-1733.81
0.2532,0.7468	-1735.87
0.3575,0.6425	-1737.01
0.3027,0.6973	-1733.02
0.3751,0.6249	-1740.24
0.3280,0.6720	-1738.79
0.2762,0.7238	-1733.05
0.2735,0.7265	-1729.30
0.3944,0.6056	-1745.23
0.3129,0.6871	-1733.72
0.3956,0.6044	-1745.24
0.3092,0.6908	-1739.38
0.3173,0.6827	-1734.46
0.2986,0.7014	-1735.67
0.3592,0.6408	-1732.43
0.3380,0.6620	-1739.33
0.3820,0.6180	-1736.61
0.3367,0.6633	-1736.64
0.2999,0.7001	-1736.47
0.3610,0.6390	-1738.26
0.3161,0.6839	-1732.16
0.3292,0.6708	-1733.78
0.4014,0.5986	-1741.29
0.3241,0.6759	-1735.93
0.2808,0.7192	-1721.53
0.2957,0.7043	-1728.84
0.2851,0.7149	-1738.15
0.3454,0.6546	-1734.17
0.4128,0.5872	-1746.52
0.2912,0.7088	-1731.54
0.2913,0.7087	-1731.53
0.3590,0.6410	-1739.95
0.3594,0.6406	-1742.27
0.3433,0.6567	-1743.19
0.3795,0.6205	-1743.81
0.2704,0.7296	-1732.40
0.3209,0.6791	-1735.20
0.3684,0.6316	-1743.32
0.3795,0.6205	-1736.44
0.3455,0.6545	-1740.57
0.3527,0.6473	-1739.31
0.2575,0.7425	-1729.09
0.3483,0.6517	-1741.17
0.3601,0.6399	-1734.21
0.3809,0.6191	-1738.96
0.3891,0.6109	-1744.78
0.3471,0.6529	-1738.66
0.2402,0.7598	-1724.75
0.3115,0.6885	-1731.35
0.3894,0.6106	-1741.63
0.3893,0.6107	-1742.53
0.3906,0.6094	-1744.78
0.3316,0.6684	-1742.23
0.2745,0.7255	-1731.20
0.2965,0.7035	-1734.88
0.3810,0.6190	-1744.30
0.3678,0.6322	-1737.37
0.3678,0.6322	-1741.16
0.3129,0.6871	-1733.72
0.2755,0.7245	-1735.99
0.3212,0.6788	-1741.94
0.3296,0.6704	-1738.76
0.3840,0.6160	-1744.30
0.3806,0.6194	-1740.41
0.3476,0.6524	-1738.03
0.2700,0.7300	-1726.46
0.3254,0.6746	-1734.46
0.3144,0.6856	-1733.71
0.4281,0.5719	-1744.15
0.3519,0.6481	-1740.52
0.3475,0.6525	-1743.07
0.2641,0.7359	-1734.87
0.3286,0.6714	-1735.92
0.2974,0.7026	-1737.43
0.4209,0.5791	-1745.03
0.3288,0.6712	-1737.34
0.3319,0.6681	-1738.72
0.2992,0.7008	-1733.94
0.3310,0.6690	-1740.84
0.3186,0.6814	-1741.30
0.4263,0.5737	-1746.13
0.3753,0.6247	-1741.27
0.3262,0.6738	-1738.82
0.3047,0.6953	-1734.64
0.2954,0.7046	-1734.05
0.2947,0.7053	-1734.95
0.4407,0.5593	-1747.58
0.3529,0.6471	-1734.46
0.3156,0.6844	-1736.80
0.3622,0.6378	-1737.16
0.3078,0.6922	-1732.96
0.2936,0.7064	-1730.60
0.4645,0.5355	-1748.12
0.3835,0.6165	-1738.60
0.3222,0.6778	-1738.92
0.3765,0.6235	-1739.78
0.3125,0.6875	-1731.35
0.2956,0.7044	-1734.05
0.4181,0.5819	-1746.25
0.3802,0.6198	-1741.86
0.2975,0.7025	-1727.12
0.3505,0.6495	-1741.76
0.3173,0.6827	-1736.76
0.2935,0.7065	-1728.85
0.4710,0.5290	-1749.87
0.3585,0.6415	-1737.04
0.2858,0.7142	-1729.86
0.3267,0.6733	-1735.92
0.3270,0.6730	-1738.08
0.2857,0.7143	-1728.03
0.3961,0.6039	-1741.87
0.3292,0.6708	-1740.19
0.2929,0.7071	-1729.73
0.3354,0.6646	-1734.58
0.2858,0.7142	-1726.20
0.3208,0.6792	-1744.21
0.4155,0.5845	-1745.86
0.3536,0.6464	-1748.36
0.3091,0.6909	-1736.16
0.3151,0.6849	-1745.35
0.2647,0.7353	-1733.79
0.3173,0.6827	-1736.76
0.4096,0.5904	-1748.69
0.2884,0.7116	-1738.83
0.3131,0.6869	-1732.93
0.3239,0.6761	-1740.34
0.2587,0.7413	-1730.07
0.3607,0.6393	-1739.40
0.4063,0.5937	-1741.18
0.2941,0.7059	-1735.85
0.3374,0.6626	-1739.34
0.3632,0.6368	-1739.44
0.2624,0.7376	-1737.07
0.3404,0.6596	-1740.63
0.4082,0.5918	-1745.75
0.3216,0.6784	-1734.45
0.3282,0.6718	-1734.48
0.3548,0.6452	-1735.14
0.2871,0.7129	-1721.65
0.3889,0.6111	-1747.04
0.3783,0.6217	-1741.33
0.3041,0.6959	-1734.66
0.3149,0.6851	-1731.37
0.3294,0.6706	-1733.78
0.2995,0.7005	-1729.69
0.4083,0.5917	-1739.81
0.3824,0.6176	-1745.74
0.3179,0.6821	-1732.93
0.2809,0.7191	-1729.99
0.3346,0.6654	-1733.88
0.3007,0.6993	-1732.22
0.3818,0.6182	-1739.00
0.3764,0.6236	-1738.77
0.3298,0.6702	-1739.46
0.2610,0.7390	-1728.88
0.3038,0.6962	-1730.52
0.2972,0.7028	-1737.44
0.3599,0.6401	-1735.93
0.3178,0.6822	-1729.88
0.3209,0.6791	-1738.20
0.2832,0.7168	-1729.92
0.3164,0.6836	-1736.78
0.2787,0.7213	-1728.16
0.3649,0.6351	-1741.14
0.3402,0.6598	-1742.63
0.3517,0.6483	-1738.69
0.3250,0.6750	-1737.38
0.3204,0.6796	-1737.46
0.2662,0.7338	-1728.61
0.2952,0.7048	-1734.06
0.3288,0.6712	-1743.76
0.3617,0.6383	-1743.96
0.3464,0.6536	-1741.83
0.3016,0.6984	-1728.85
0.3552,0.6448	-1730.98
0.2770,0.7230	-1728.21
0.3047,0.6953	-1735.47
0.3486,0.6514	-1747.41
0.3478,0.6522	-1729.86
0.3251,0.6749	-1738.84
0.3245,0.6755	-1739.59
0.2888,0.7112	-1731.60
0.3280,0.6720	-1733.76
0.3112,0.6888	-1736.91
0.3597,0.6403	-1744.57
0.3243,0.6757	-1730.79
0.2985,0.7015	-1730.54
0.2882,0.7118	-1735.23
0.3195,0.6805	-1740.51
0.3545,0.6455	-1741.72
0.3583,0.6417	-1740.53
0.3278,0.6722	-1737.35
0.3471,0.6529	-1738.02
0.2821,0.7179	-1723.42
0.3278,0.6722	-1735.92
0.3239,0.6761	-1732.99
0.3446,0.6554	-1737.36
0.3813,0.6187	-1736.56
0.3288,0.6712	-1734.49
0.2537,0.7463	-1735.82
0.3183,0.6817	-1737.51
0.3383,0.6617	-1729.94
0.3476,0.6524	-1733.62
0.3733,0.6267	-1740.20
0.3349,0.6651	-1733.20
0.2940,0.7060	-1734.98
0.2995,0.7005	-1729.69
0.3592,0.6408	-1742.27
0.3710,0.6290	-1739.62
0.3422,0.6578	-1737.34
0.3308,0.6692	-1732.39
0.3486,0.6514	-1736.16
0.3518,0.6482	-1742.36
0.3826,0.6174	-1741.43
0.3769,0.6231	-1742.31
0.2905,0.7095	-1734.23
0.3209,0.6791	-1741.20
0.3444,0.6556	-1731.56
0.3727,0.6273	-1740.71
0.4110,0.5890	-1743.27
0.3077,0.6923	-1739.45
0.3162,0.6838	-1734.47
0.3041,0.6959	-1732.17
0.3361,0.6639	-1734.59
0.3354,0.6646	-1736.63
0.4190,0.5810	-1746.92
0.3387,0.6613	-1729.96
0.3301,0.6699	-1728.84
0.3363,0.6637	-1733.91
0.3282,0.6718	-1737.35
0.3440,0.6560	-1737.35
0.4103,0.5897	-1745.41
0.3057,0.6943	-1735.44
0.3460,0.6540	-1736.74
0.3176,0.6824	-1728.34
0.3260,0.6740	-1735.19
0.3502,0.6498	-1740.53
0.3530,0.6470	-1733.25
0.3160,0.6840	-1731.38
0.3640,0.6360	-1741.69
0.3266,0.6734	-1731.58
0.3111,0.6889	-1744.06
0.3383,0.6617	-1740.67
0.3474,0.6526	-1739.92
0.3144,0.6856	-1732.93
0.3821,0.6179	-1739.50
0.3051,0.6949	-1735.46
0.3423,0.6577	-1738.65
0.3424,0.6576	-1741.26
0.3406,0.6594	-1738.65
0.3678,0.6322	-1738.99
0.4121,0.5879	-1743.32
0.2779,0.7221	-1729.14
0.3343,0.6657	-1733.87
0.3289,0.6711	-1735.92
0.3642,0.6358	-1742.80
0.3714,0.6286	-1738.05
0.3648,0.6352	-1744.46
0.2733,0.7267	-1736.15
0.3386,0.6614	-1737.32
0.3235,0.6765	-1742.57
0.3139,0.6861	-1733.71
0.3676,0.6324	-1741.16
0.3674,0.6326	-1743.33
0.2810,0.7190	-1739.38
0.3088,0.6912	-1736.17
0.3082,0.6918	-1733.76
0.3631,0.6369	-1741.12
0.3553,0.6447	-1736.35
0.3808,0.6192	-1739.93
0.3448,0.6552	-1741.22
0.3167,0.6833	-1740.62
0.3158,0.6842	-1736.02
0.3464,0.6536	-1734.21
0.3391,0.6609	-1733.32
0.3390,0.6610	-1736.65
0.3406,0.6594	-1737.33
0.3273,0.6727	-1736.64
0.2856,0.7144	-1728.03
0.3306,0.6694	-1738.03
0.3207,0.6793	-1732.20
0.3336,0.6664	-1737.32
0.3528,0.6472	-1737.49
0.3221,0.6779	-1738.17
0.2501,0.7499	-1735.11
0.3123,0.6877	-1738.45
0.3125,0.6875	-1728.99
0.3439,0.6561	-1728.96
0.3734,0.6266	-1743.31
0.2997,0.7003	-1733.93
0.2953,0.7047	-1730.58
0.3135,0.6865	-1730.58
0.3061,0.6939	-1734.61
0.3389,0.6611	-1736.65
0.3753,0.6247	-1737.70
0.2957,0.7043	-1740.99
0.3066,0.6934	-1738.68
0.3254,0.6746	-1730.82
0.3483,0.6517	-1737.41
0.3109,0.6891	-1740.90
0.3721,0.6279	-1737.03
0.3131,0.6869	-1723.50
0.2896,0.7104	-1741.44
0.3512,0.6488	-1738.68
0.3417,0.6583	-1740.61
0.3056,0.6944	-1739.55
0.3732,0.6268	-1741.75
0.3405,0.6595	-1738.65
0.3087,0.6913	-1737.79
0.3805,0.6195	-1737.97
0.3185,0.6815	-1732.18
0.2975,0.7025	-1730.55
0.3239,0.6761	-1729.30
0.3803,0.6197	-1740.89
0.3650,0.6350	-1741.14
0.3677,0.6323	-1736.83
0.3517,0.6483	-1737.47
0.3308,0.6692	-1735.21
0.3626,0.6374	-1743.94
0.3871,0.6129	-1738.80
0.4059,0.5941	-1744.20
0.3489,0.6511	-1741.16
0.3750,0.6250	-1740.75
0.3831,0.6169	-1742.40
0.3470,0.6530	-1739.92
0.3897,0.6103	-1743.88
0.4233,0.5767	-1745.73
0.3209,0.6791	-1735.95
0.3515,0.6485	-1743.59
0.3712,0.6288	-1735.93
0.3329,0.6671	-1737.32
0.3634,0.6366	-1739.44
0.3981,0.6019	-1745.67
0.3106,0.6894	-1728.95
0.3260,0.6740	-1738.82
0.3759,0.6241	-1743.31
0.3538,0.6462	-1735.10
0.3195,0.6805	-1733.70
0.3705,0.6295	-1743.84
0.2747,0.7253	-1727.31
0.3384,0.6616	-1736.65
0.3298,0.6702	-1731.66
0.3583,0.6417	-1739.36
0.3345,0.6655	-1740.75
0.3328,0.6672	-1738.01
0.3128,0.6872	-1739.23
0.2900,0.7100	-1736.04
0.3245,0.6755	-1735.93
0.3653,0.6347	-1738.93
0.3213,0.6787	-1735.20
0.3767,0.6233	-1738.78
0.3086,0.6914	-1730.53
0.3357,0.6643	-1732.53
0.3321,0.6679	-1736.62
0.3371,0.6629	-1729.88
0.3420,0.6580	-1742.57
0.3175,0.6825	-1732.17
0.2845,0.7155	-1729.89
0.3453,0.6547	-1736.09
0.3182,0.6818	-1736.75
0.3007,0.6993	-1728.00
0.2954,0.7046	-1743.62
0.2836,0.7164	-1729.91
0.2595,0.7405	-1724.77
0.3123,0.6877	-1726.61
0.3167,0.6833	-1736.77
0.3208,0.6792	-1739.70
0.3145,0.6855	-1736.04
0.3095,0.6905	-1736.96
0.2497,0.7503	-1725.25
0.3105,0.6895	-1731.34
0.2621,0.7379	-1726.75
0.3605,0.6395	-1737.10
0.3098,0.6902	-1732.14
0.3067,0.6933	-1732.15
0.2478,0.7522	-1736.46
0.3566,0.6434	-1742.88
0.3313,0.6687	-1733.11
0.3934,0.6066	-1743.50
0.2873,0.7127	-1735.28
0.3184,0.6816	-1733.70
0.2671,0.7329	-1728.57
0.3219,0.6781	-1740.41
0.3235,0.6765	-1741.83
0.3521,0.6479	-1733.82
0.2889,0.7111	-1738.80
0.3264,0.6736	-1734.47
0.3017,0.6983	-1728.85
0.3178,0.6822	-1736.75
0.3286,0.6714	-1735.92
0.3003,0.6997	-1730.53
0.2757,0.7243	-1732.11
0.3318,0.6682	-1730.32
0.3065,0.6935	-1737.87
0.3189,0.6811	-1727.63
0.3320,0.6680	-1743.62
0.3197,0.6803	-1730.68
0.3181,0.6819	-1735.22
0.3386,0.6614	-1746.69
0.2832,0.7168	-1728.07
0.3021,0.6979	-1731.36
0.3278,0.6722	-1733.04
0.3362,0.6638	-1732.55
0.2730,0.7270	-1735.19
0.3675,0.6325	-1738.44
0.2979,0.7021	-1732.26
0.2832,0.7168	-1741.07
0.3141,0.6859	-1730.58
0.3374,0.6626	-1736.64
0.3474,0.6526	-1735.50
0.3536,0.6464	-1734.49
0.2838,0.7162	-1725.28
0.3716,0.6284	-1738.58
0.2978,0.7022	-1736.56
0.3632,0.6368	-1742.81
0.3202,0.6798	-1734.45
0.3265,0.6735	-1741.71
0.2774,0.7226	-1730.11
0.3664,0.6336	-1743.34
0.3463,0.6537	-1733.57
0.3814,0.6186	-1738.01
0.3574,0.6426	-1741.70
0.3127,0.6873	-1738.44
0.3149,0.6851	-1732.93
0.3892,0.6108	-1742.97
0.3954,0.6046	-1740.57
0.3558,0.6442	-1733.99
0.3078,0.6922	-1732.15
0.3589,0.6411	-1742.27
0.3116,0.6884	-1732.93
0.4350,0.5650	-1746.41
0.3819,0.6181	-1742.86
0.3415,0.6585	-1736.02
0.3158,0.6842	-1736.02
0.3891,0.6109	-1742.52
0.3409,0.6591	-1739.31
0.4529,0.5471	-1747.00
0.3616,0.6384	-1736.57
0.3511,0.6489	-1741.75
0.3227,0.6773	-1732.97
0.3742,0.6258	-1741.25
0.3524,0.6476	-1739.31
0.4631,0.5369	-1748.34
0.3507,0.6493	-1734.98
0.3963,0.6037	-1745.24
0.3039,0.6961	-1728.86
0.3574,0.6426	-1740.52
0.3624,0.6376	-1742.25
0.4286,0.5714	-1747.63
0.3390,0.6610	-1735.98
0.3769,0.6231	-1737.78
0.3289,0.6711	-1735.92
0.3742,0.6258	-1743.82
0.3575,0.6425	-1739.35
0.4037,0.5963	-1748.04
0.2955,0.7045	-1734.05
0.3343,0.6657	-1735.94
0.2763,0.7237	-1733.04
0.3490,0.6510	-1745.52
0.3359,0.6641	-1743.45
0.4367,0.5633	-1748.25
0.3002,0.6998	-1737.30
0.3330,0.6670	-1742.18
0.2570,0.7430	-1730.18
0.3667,0.6333	-1736.23
0.3239,0.6761	-1738.14
0.4350,0.5650	-1744.58
0.3154,0.6846	-1733.70
0.3166,0.6834	-1730.62
0.2538,0.7462	-1729.34
0.3424,0.6576	-1739.95
0.3071,0.6929	-1728.90
0.4032,0.5968	-1742.56
0.3077,0.6923	-1730.53
0.3127,0.6873	-1738.44
0.2972,0.7028	-1727.97
0.3538,0.6462	-1738.11
0.3115,0.6885	-1734.52
0.3690,0.6310	-1739.03
0.3081,0.6919	-1729.72
0.3461,0.6539	-1735.47
0.2868,0.7132	-1741.68
0.3144,0.6856	-1725.13
0.3404,0.6596	-1736.67
0.3699,0.6301	-1737.46
0.2752,0.7248	-1734.08
0.3369,0.6631	-1744.76
0.2737,0.7263	-1726.36
0.2745,0.7255	-1738.00
0.3684,0.6316	-1739.01
0.3475,0.6525	-1742.44
0.3488,0.6512	-1736.17
0.3226,0.6774	-1729.26
0.3071,0.6929	-1737.03
0.2912,0.7088	-1724.42
0.3561,0.6439	-1737.56
0.3225,0.6775	-1738.16
0.3544,0.6456	-1742.32
0.3199,0.6801	-1741.24
0.2696,0.7304	-1725.47
0.2824,0.7176	-1730.88
0.3998,0.6002	-1742.42
0.3242,0.6758	-1746.21
0.3871,0.6129	-1740.64
0.3125,0.6875	-1734.51
0.2688,0.7312	-1729.50
0.2817,0.7183	-1728.10
0.3487,0.6513	-1740.54
0.3589,0.6411	-1742.85
0.4049,0.5951	-1743.40
0.3535,0.6465	-1736.29
0.2731,0.7269	-1733.23
0.2892,0.7108	-1735.18
0.3334,0.6666	-1734.55
0.3634,0.6366	-1742.81
0.3907,0.6093	-1746.12
0.3628,0.6372	-1737.74
0.2607,0.7393	-1725.77
0.3156,0.6844	-1732.15
0.3566,0.6434	-1735.80
0.3455,0.6545	-1738.01
0.3938,0.6062	-1743.94
0.3456,0.6544	-1736.09
0.2645,0.7355	-1732.79
0.3523,0.6477	-1736.26
0.3640,0.6360	-1736.11
0.3375,0.6625	-1743.38
0.4541,0.5459	-1749.09
0.3424,0.6576	-1734.08
0.2559,0.7441	-1730.26
0.4092,0.5908	-1743.56
0.3604,0.6396	-1738.82
0.3764,0.6236	-1743.82
0.3613,0.6387	-1740.55
0.3815,0.6185	-1740.44
0.2775,0.7225	-1729.15
0.4005,0.5995	-1744.47
0.3689,0.6311	-1734.73
0.3370,0.6630	-1737.99
0.3778,0.6222	-1735.83
0.4127,0.5873	-1745.11
0.2712,0.7288	-1726.42
0.4121,0.5879	-1744.03
0.4125,0.5875	-1743.69
0.3121,0.6879	-1740.04
0.3917,0.6083	-1743.03
0.4082,0.5918	-1743.15
0.2707,0.7293	-1736.34
0.3856,0.6144	-1743.38
0.3473,0.6527	-1739.29
0.3518,0.6482	-1741.13
0.3815,0.6185	-1738.99
0.4046,0.5954	-1745.32
0.2712,0.7288	-1727.41
0.3473,0.6527	-1737.39
0.3231,0.6769	-1735.93
0.3328,0.6672	-1738.71
0.3690,0.6310	-1735.28
0.3736,0.6264	-1737.10
0.2823,0.7177	-1729.02
0.3422,0.6578	-1734.07
0.3192,0.6808	-1734.46
0.3336,0.6664	-1736.62
0.3476,0.6524	-1738.66
0.3447,0.6553	-1739.29
0.3205,0.6795	-1733.70
0.3449,0.6551	-1738.65
0.3330,0.6670	-1736.62
0.3111,0.6889	-1735.32
0.2799,0.7201	-1730.97
0.3614,0.6386	-1743.39
0.3549,0.6451	-1742.31
0.3148,0.6852	-1733.70
0.2938,0.7062	-1720.95
0.3285,0.6715	-1735.20
0.2779,0.7221	-1731.05
0.3857,0.6143	-1743.38
0.3483,0.6517	-1736.78
0.3306,0.6694	-1737.33
0.2765,0.7235	-1738.81
0.3258,0.6742	-1734.47
0.3078,0.6922	-1728.09
0.3848,0.6152	-1742.90
0.3313,0.6687	-1733.81
0.3290,0.6710	-1733.06
0.2903,0.7097	-1728.88
0.3340,0.6660	-1735.93
0.3107,0.6893	-1732.94
0.3593,0.6407	-1741.11
0.2819,0.7181	-1739.31
0.3291,0.6709	-1733.07
0.2843,0.7157	-1733.59
0.3423,0.6577	-1736.69
0.3190,0.6810	-1738.25
0.3372,0.6628	-1737.31
0.3048,0.6952	-1737.12
0.3423,0.6577	-1736.69
0.3020,0.6980	-1738.06
0.3237,0.6763	-1738.14
0.2842,0.7158	-1740.06
0.3321,0.6679	-1740.82
0.2666,0.7334	-1720.50
0.3627,0.6373	-1740.56
0.2603,0.7397	-1729.97
0.3310,0.6690	-1738.03
0.3170,0.6830	-1733.70
0.3367,0.6633	-1739.35
0.2835,0.7165	-1735.48
0.3293,0.6707	-1729.51
0.2905,0.7095	-1736.02
0.2886,0.7114	-1726.19
0.3287,0.6713	-1730.20
0.3738,0.6262	-1732.99
0.2958,0.7042	-1729.70
0.3243,0.6757	-1732.26
0.2763,0.7237	-1733.04
0.2674,0.7326	-1737.63
0.3670,0.6330	-1737.88
0.3840,0.6160	-1744.78
0.3643,0.6357	-1737.23
0.3153,0.6847	-1734.48
0.2798,0.7202	-1728.14
0.3116,0.6884	-1735.31
0.3461,0.6539	-1739.92
0.3850,0.6150	-1743.84
0.3676,0.6324	-1736.82
0.3198,0.6802	-1733.70
0.2850,0.7150	-1734.48
0.3152,0.6848	-1742.24
0.3704,0.6296	-1738.01
0.3907,0.6093	-1743.45
0.4118,0.5882	-1742.23
0.3054,0.6946	-1733.81
0.3063,0.6937	-1730.52
0.2793,0.7207	-1717.72
0.3576,0.6424	-1738.18
0.4181,0.5819	-1746.25
0.4342,0.5658	-1746.65
0.3422,0.6578	-1737.34
0.3155,0.6845	-1739.90
0.2991,0.7009	-1737.35
0.3390,0.6610	-1729.97
0.4068,0.5932	-1742.71
0.4413,0.5587	-1747.12
0.3614,0.6386	-1738.27
0.2922,0.7078	-1727.09
0.3022,0.6978	-1733.87
0.3257,0.6743	-1727.92
0.3763,0.6237	-1739.27
0.4237,0.5763	-1745.74
0.3694,0.6306	-1741.18
0.3396,0.6604	-1733.33
0.2778,0.7222	-1741.56
0.3371,0.6629	-1731.90
0.3514,0.6486	-1736.85
0.3283,0.6717	-1739.50
0.3313,0.6687	-1738.03
0.3181,0.6819	-1741.32
0.2351,0.7649	-1728.68
0.3315,0.6685	-1735.22
0.3262,0.6738	-1737.37
0.3687,0.6313	-1742.25
0.3027,0.6973	-1727.18
0.3334,0.6666	-1733.85
0.2277,0.7723	-1718.52
0.3484,0.6516	-1738.66
0.3085,0.6915	-1735.37
0.3689,0.6311	-1743.32
0.3630,0.6370	-1741.12
0.3499,0.6501	-1739.29
0.2379,0.7621	-1738.89
0.3644,0.6356	-1736.13
0.3027,0.6973	-1732.19
0.3146,0.6854	-1733.71
0.4463,0.5537	-1748.17
0.2978,0.7022	-1732.27
0.2617,0.7383	-1734.03
0.3262,0.6738	-1733.74
0.3586,0.6414	-1739.37
0.2960,0.7040	-1733.17
0.4454,0.5546	-1746.83
0.2877,0.7123	-1734.35
0.2787,0.7213	-1734.82
0.3208,0.6792	-1737.45
0.4028,0.5972	-1746.09
0.3027,0.6973	-1733.02
0.4513,0.5487	-1747.70
0.2970,0.7030	-1729.70
0.2896,0.7104	-1736.06
0.3010,0.6990	-1729.68
0.3700,0.6300	-1741.72
0.3132,0.6868	-1742.35
0.4126,0.5874	-1742.99
0.3100,0.6900	-1736.14
0.3327,0.6673	-1734.54
0.3050,0.6950	-1741.23
0.3512,0.6488	-1743.59
0.3426,0.6574	-1734.08
0.3073,0.6927	-1728.09
0.3101,0.6899	-1732.94
0.3383,0.6617	-1737.99
0.3159,0.6841	-1731.38
0.3651,0.6349	-1740.03
0.3917,0.6083	-1739.51
0.3432,0.6568	-1740.59
0.3297,0.6703	-1735.92
0.3360,0.6640	-1732.55
0.3601,0.6399	-1739.39
0.3426,0.6574	-1731.47
0.3640,0.6360	-1743.36
0.3134,0.6866	-1727.44
0.3254,0.6746	-1728.63
0.3949,0.6051	-1743.10
0.3824,0.6176	-1742.38
0.3386,0.6614	-1735.98
0.4124,0.5876	-1746.87
0.3439,0.6561	-1739.29
0.3059,0.6941	-1735.44
0.3780,0.6220	-1739.83
0.3516,0.6484	-1741.75
0.3173,0.6827	-1736.00
0.3953,0.6047	-1741.84
0.3731,0.6269	-1742.27
0.3649,0.6351	-1735.59
0.3670,0.6330	-1740.06
0.3292,0.6708	-1729.51
0.3470,0.6530	-1735.49
0.3687,0.6313	-1739.56
0.3606,0.6394	-1736.53
0.3361,0.6639	-1744.12
0.3963,0.6037	-1738.93
0.3722,0.6278	-1737.04
0.3239,0.6761	-1735.93
0.3076,0.6924	-1734.58
0.3597,0.6403	-1730.73
0.3451,0.6549	-1737.37
0.3811,0.6189	-1735.09
0.3333,0.6667	-1747.02
0.3496,0.6504	-1734.33
0.3546,0.6454	-1739.92
0.3425,0.6575	-1734.73
0.3470,0.6530	-1738.65
0.3630,0.6370	-1737.75
0.3714,0.6286	-1742.26
0.3352,0.6648	-1738.00
0.3678,0.6322	-1741.70
0.3751,0.6249	-1743.31
0.3640,0.6360	-1740.57
0.3193,0.6807	-1732.94
0.4181,0.5819	-1746.58
0.3489,0.6511	-1740.54
0.3731,0.6269	-1740.19
0.3460,0.6540	-1739.29
0.3682,0.6318	-1746.57
0.2927,0.7073	-1735.91
0.3800,0.6200	-1741.86
0.3489,0.6511	-1738.04
0.3814,0.6186	-1746.72
0.3121,0.6879	-1737.67
0.3093,0.6907	-1733.75
0.3170,0.6830	-1739.84
0.3917,0.6083	-1740.39
0.3615,0.6385	-1745.67
0.3466,0.6534	-1742.46
0.3215,0.6785	-1738.93
0.3110,0.6890	-1731.34
0.3012,0.6988	-1733.05
0.4155,0.5845	-1744.50
0.3158,0.6842	-1738.34
0.2992,0.7008	-1734.79
0.2895,0.7105	-1727.99
0.3257,0.6743	-1736.65
0.3230,0.6770	-1738.89
0.3770,0.6230	-1739.79
0.3466,0.6534	-1732.31
0.3199,0.6801	-1737.47
0.3131,0.6869	-1739.21
0.3401,0.6599	-1735.34
0.3117,0.6883	-1748.78
0.3713,0.6287	-1740.15
0.3483,0.6517	-1738.04
0.2971,0.7029	-1733.14
0.2701,0.7299	-1729.43
0.3341,0.6659	-1733.87
0.3190,0.6810	-1736.73
0.3609,0.6391	-1739.97
0.3577,0.6423	-1739.36
0.3110,0.6890	-1741.69
0.2692,0.7308	-1725.48
0.3147,0.6853	-1733.71
0.3474,0.6526	-1738.03
0.3597,0.6403	-1741.69
0.3517,0.6483	-1737.47
0.3414,0.6586	-1738.65
0.2353,0.7647	-1732.21
0.3337,0.6663	-1735.24
0.3300,0.6700	-1745.12
0.3311,0.6689	-1745.06
0.3473,0.6527	-1743.07
0.3748,0.6252	-1741.26
0.2771,0.7229	-1733.00
0.3235,0.6765	-1738.14
0.3067,0.6933	-1731.34
0.3452,0.6548	-1741.85
0.3585,0.6415	-1739.95
0.3282,0.6718	-1740.93
0.2857,0.7143	-1735.36
0.3315,0.6685	-1733.82
0.3199,0.6801	-1736.72
0.3635,0.6365	-1738.88
0.3424,0.6576	-1735.38
0.3109,0.6891	-1728.96
0.2817,0.7183	-1737.45
0.3574,0.6426	-1738.18
0.3284,0.6716	-1738.06
0.4306,0.5694	-1746.54
0.2918,0.7082	-1728.86
0.3243,0.6757	-1741.80
0.3143,0.6857	-1728.25
0.3674,0.6326	-1735.72
0.3776,0.6224	-1742.31
0.3836,0.6164	-1743.35
0.2815,0.7185	-1740.28
0.3436,0.6564	-1741.23
0.3317,0.6683	-1735.22
0.3733,0.6267	-1746.42
0.3548,0.6452	-1742.91
0.3854,0.6146	-1741.04
0.3029,0.6971	-1735.52
0.3435,0.6565	-1732.17
0.3269,0.6731	-1729.42
0.3751,0.6249	-1737.69
0.3691,0.6309	-1744.39
0.3832,0.6168	-1741.92
0.2978,0.7022	-1728.83
0.3550,0.6450	-1738.73
0.3330,0.6670	-1739.40
0.4000,0.6000	-1742.03
0.3478,0.6522	-1738.66
0.3286,0.6714	-1739.49
0.3116,0.6884	-1729.76
0.3567,0.6433	-1737.57
0.3319,0.6681	-1736.62
0.4371,0.5629	-1748.51
0.3143,0.6857	-1735.27
0.3212,0.6788	-1732.21
0.3088,0.6912	-1728.92
0.3717,0.6283	-1741.21
0.2867,0.7133	-1735.31
0.4308,0.5692	-1743.76
0.3235,0.6765	-1741.09
0.3108,0.6892	-1740.90
0.3473,0.6527	-1731.71
0.2975,0.7025	-1734.85
0.2941,0.7059	-1729.72
0.3930,0.6070	-1745.23
0.3360,0.6640	-1737.31
0.3293,0.6707	-1733.78
0.3654,0.6346	-1735.62
0.3265,0.6735	-1730.13
0.2989,0.7011	-1735.66
0.3817,0.6183	-1743.34
0.3259,0.6741	-1735.92
0.3722,0.6278	-1738.08
0.3518,0.6482	-1736.86
0.3247,0.6753	-1732.26
0.2867,0.7133	-1731.66
0.3679,0.6321	-1743.33
0.3526,0.6474	-1739.91
0.3686,0.6314	-1739.56
0.3063,0.6937	-1737.06
0.3175,0.6825	-1734.46
0.3027,0.6973	-1730.52
0.3242,0.6758	-1737.40
0.3484,0.6516	-1739.29
0.3206,0.6794	-1735.96
0.3091,0.6909	-1732.14
0.2957,0.7043	-1725.37
0.2878,0.7122	-1725.29
0.3064,0.6936	-1733.79
0.3061,0.6939	-1732.98
0.3279,0.6721	-1736.63
0.3713,0.6287	-1742.26
0.2912,0.7088	-1729.76
0.3502,0.6498	-1737.44
0.2954,0.7046	-1728.84
0.3439,0.6561	-1738.65
0.3689,0.6311	-1745.47
0.3749,0.6251	-1740.75
0.3002,0.6998	-1732.22
0.3633,0.6367	-1734.95
0.2923,0.7077	-1735.05
0.3394,0.6606	-1731.33
0.4325,0.5675	-1748.49
0.3990,0.6010	-1746.49
0.3230,0.6770	-1731.50
0.3696,0.6304	-1743.85
0.2722,0.7278	-1743.12
0.3743,0.6257	-1743.82
0.4127,0.5873	-1746.52
0.3574,0.6426	-1736.42
0.3227,0.6773	-1734.45
0.3506,0.6494	-1737.45
0.2975,0.7025	-1731.41
0.3354,0.6646	-1733.21
0.3957,0.6043	-1742.70
0.3488,0.6512	-1733.67
0.3541,0.6459	-1741.72
0.3409,0.6591	-1742.60
0.3178,0.6822	-1735.23
0.3678,0.6322	-1736.83
0.4031,0.5969	-1744.52
0.3315,0.6685	-1734.52
0.3677,0.6323	-1741.70
0.3077,0.6923	-1729.72
0.3037,0.6963	-1733.84
0.3516,0.6484	-1740.52
0.4276,0.5724	-1745.87
0.3327,0.6673	-1735.93
0.4001,0.5999	-1743.25
0.3159,0.6841	-1733.70
0.3233,0.6767	-1737.41
0.3309,0.6691	-1729.58
0.4269,0.5731	-1742.02
0.3331,0.6669	-1747.04
0.4398,0.5602	-1745.62
0.2947,0.7053	-1734.08
0.3365,0.6635	-1737.99
0.3316,0.6684	-1742.93
0.4391,0.5609	-1746.56
0.3581,0.6419	-1742.28
0.3933,0.6067	-1738.73
0.3446,0.6554	-1737.36
0.3431,0.6569	-1740.59
0.3269,0.6731	-1733.75
0.3829,0.6171	-1742.87
0.3840,0.6160	-1736.27
0.4377,0.5623	-1746.51
0.3238,0.6762	-1735.19
0.3539,0.6461	-1741.12
0.3399,0.6601	-1737.32
0.3407,0.6593	-1743.93
0.3432,0.6568	-1732.15
0.4030,0.5970	-1741.77
0.3090,0.6910	-1743.41
0.3237,0.6763	-1738.14
0.3411,0.6589	-1743.92
0.3258,0.6742	-1735.92
0.3314,0.6686	-1734.52
0.4200,0.5800	-1747.57
0.3227,0.6773	-1738.90
0.3617,0.6383	-1739.98
0.3228,0.6772	-1735.20
0.3787,0.6213	-1739.36
0.3026,0.6974	-1736.37
0.3536,0.6464	-1739.31
0.3313,0.6687	-1736.62
0.3407,0.6593	-1734.69
0.2970,0.7030	-1731.42
0.4181,0.5819	-1747.24
0.3315,0.6685	-1738.73
0.3606,0.6394	-1738.25
0.2886,0.7114	-1726.19
0.3376,0.6624	-1741.36
0.3035,0.6965	-1735.50
0.3854,0.6146	-1740.57
0.3395,0.6605	-1741.98
0.3850,0.6150	-1741.03
0.3047,0.6953	-1734.64
0.3234,0.6766	-1738.15
0.3122,0.6878	-1731.35
0.3712,0.6288	-1742.78
0.3192,0.6808	-1742.03
0.3179,0.6821	-1730.64
0.3344,0.6656	-1738.69
0.3414,0.6586	-1744.56
0.3034,0.6966	-1732.18
0.3727,0.6273	-1740.71
0.3047,0.6953	-1735.47
0.2690,0.7310	-1728.49
0.3198,0.6802	-1735.96
0.3481,0.6519	-1731.13
0.3297,0.6703	-1738.04
0.3605,0.6395	-1736.53
0.3273,0.6727	-1748.89
0.2981,0.7019	-1731.40
0.3203,0.6797	-1730.69
0.3438,0.6562	-1742.52
0.3597,0.6403	-1734.77
0.3818,0.6182	-1744.30
0.2978,0.7022	-1729.69
0.3307,0.6693	-1742.27
0.3076,0.6924	-1734.58
0.2943,0.7057	-1727.09
0.4011,0.5989	-1745.68
0.3742,0.6258	-1739.19
0.2723,0.7277	-1736.22
0.3272,0.6728	-1735.92
0.3437,0.6563	-1743.17
0.2935,0.7065	-1736.75
0.3735,0.6265	-1739.17
0.4060,0.5940	-1743.44
0.2906,0.7094	-1734.23
0.3490,0.6510	-1738.04
0.3595,0.6405	-1736.49
0.2890,0.7110	-1733.39
0.4166,0.5834	-1744.54
0.4311,0.5689	-1745.16
0.3191,0.6809	-1739.00
0.3215,0.6785	-1735.20
0.3593,0.6407	-1739.38
0.2868,0.7132	-1731.66
0.4013,0.5987	-1743.68
0.4400,0.5600	-1748.29
0.3323,0.6677	-1730.34
0.3278,0.6722	-1735.20
0.3333,0.6667	-1738.70
0.3508,0.6492	-1738.07
0.3809,0.6191	-1742.85
0.3856,0.6144	-1737.79
0.3248,0.6752	-1738.85
0.3339,0.6661	-1736.62
0.3701,0.6299	-1743.85
0.3211,0.6789	-1738.94
0.3465,0.6535	-1739.29
0.3738,0.6262	-1739.70
0.3360,0.6640	-1735.95
0.3324,0.6676	-1736.62
0.4002,0.5998	-1742.84
0.3260,0.6740	-1746.81
0.3577,0.6423	-1742.87
0.3805,0.6195	-1742.84
0.3105,0.6895	-1724.96
0.2933,0.7067	-1734.13
0.4105,0.5895	-1743.97
0.3619,0.6381	-1737.72
0.3219,0.6781	-1740.41
0.3911,0.6089	-1741.69
0.3362,0.6638	-1734.59
0.2707,0.7293	-1728.42
0.3787,0.6213	-1741.83
0.3688,0.6312	-1741.71
0.3136,0.6864	-1738.41
0.3603,0.6397	-1741.11
0.3560,0.6440	-1737.56
0.3144,0.6856	-1735.27
0.3570,0.6430	-1741.70
0.3575,0.6425	-1740.53
0.3194,0.6806	-1732.19
0.3507,0.6493	-1740.53
0.3398,0.6602	-1737.99
0.3597,0.6403	-1735.34
0.4143,0.5857	-1747.23
0.3727,0.6273	-1738.62
0.2831,0.7169	-1729.00
0.3486,0.6514	-1736.79
0.3174,0.6826	-1732.93
0.3136,0.6864	-1736.84
0.3686,0.6314	-1740.63
0.3380,0.6620	-1739.33
0.2867,0.7133	-1728.93
0.2916,0.7084	-1735.97
0.3263,0.6737	-1738.82
0.3105,0.6895	-1733.74
0.3402,0.6598	-1738.65
0.4024,0.5976	-1744.90
0.2610,0.7390	-1730.97
0.2673,0.7327	-1724.53
0.3718,0.6282	-1739.64
0.2894,0.7106	-1731.58
0.3233,0.6767	-1740.37
0.3883,0.6117	-1746.14
0.3129,0.6871	-1736.86
0.3112,0.6888	-1737.70
0.3115,0.6885	-1734.52
0.2599,0.7401	-1727.90
0.3527,0.6473	-1733.84
0.3882,0.6118	-1742.95
0.3324,0.6676	-1743.60
0.3115,0.6885	-1728.18
0.3255,0.6745	-1738.11
0.2774,0.7226	-1722.45
0.3354,0.6646	-1743.47
0.3437,0.6563	-1743.82
0.3433,0.6567	-1742.54
0.3264,0.6736	-1740.27
0.3639,0.6361	-1737.22
0.3009,0.6991	-1732.21
0.3708,0.6292	-1740.14
0.2975,0.7025	-1733.99
0.3705,0.6295	-1740.13
0.3759,0.6241	-1749.90
0.3470,0.6530	-1738.65
0.2729,0.7271	-1741.08
0.3364,0.6636	-1739.35
0.3449,0.6551	-1736.72
0.3387,0.6613	-1737.32
0.3592,0.6408	-1739.95
0.3179,0.6821	-1729.88
0.2972,0.7028	-1724.53
0.3529,0.6471	-1737.49
0.3368,0.6632	-1736.64
0.3007,0.6993	-1737.28
0.3919,0.6081	-1740.39
0.3168,0.6832	-1733.70
0.3001,0.6999	-1729.69
0.3220,0.6780	-1744.13
0.3236,0.6764	-1738.14
0.2890,0.7110	-1723.49
0.3568,0.6432	-1735.22
0.3204,0.6796	-1732.95
0.3197,0.6803	-1735.21
0.3289,0.6711	-1736.63
0.3393,0.6607	-1737.32
0.2907,0.7093	-1736.90
0.3946,0.6054	-1743.95
0.2901,0.7099	-1736.93
0.3067,0.6933	-1732.15
0.3008,0.6992	-1732.21
0.3246,0.6754	-1735.19
0.2950,0.7050	-1738.43
0.4025,0.5975	-1741.35
0.3107,0.6893	-1731.34
0.3629,0.6371	-1734.37
0.3295,0.6705	-1741.60
0.3193,0.6807	-1730.67
0.3206,0.6794	-1741.21
0.4074,0.5926	-1745.74
0.2965,0.7035	-1732.29
0.4489,0.5511	-1749.04
0.3364,0.6636	-1729.84
0.3296,0.6704	-1738.05
0.2822,0.7178	-1734.62
0.4259,0.5741	-1746.41
0.2722,0.7278	-1730.33
0.3677,0.6323	-1741.16
0.3635,0.6365	-1743.37
0.3580,0.6420	-1745.20
0.3417,0.6583	-1739.96
0.4667,0.5333	-1748.37
0.3622,0.6378	-1734.33
0.3273,0.6727	-1729.43
0.3238,0.6762	-1740.35
0.3686,0.6314	-1744.40
0.3406,0.6594	-1732.04
0.4741,0.5259	-1748.34
0.3296,0.6704	-1740.89
0.3518,0.6482	-1738.08
0.3134,0.6866	-1727.44
0.3590,0.6410	-1737.63
0.3046,0.6954	-1738.77
0.4463,0.5537	-1747.95
0.2961,0.7039	-1734.03
0.3796,0.6204	-1739.39
0.3290,0.6710	-1730.21
0.4219,0.5781	-1746.64
0.2880,0.7120	-1737.96
0.4213,0.5787	-1747.58
0.2963,0.7037	-1732.30
0.3377,0.6623	-1742.03
0.3570,0.6430	-1735.82
0.3843,0.6157	-1745.25
0.2798,0.7202	-1728.14
0.4009,0.5991	-1742.06
0.2953,0.7047	-1734.06
0.3387,0.6613	-1733.97
0.3632,0.6368	-1740.00
0.3560,0.6440	-1745.26
0.3214,0.6786	-1738.94
0.4166,0.5834	-1743.19
0.3018,0.6982	-1730.52
0.3478,0.6522	-1739.92
0.3851,0.6149	-1743.37
0.3562,0.6438	-1737.56
0.3127,0.6873	-1729.78
0.4267,0.5733	-1747.91
0.3202,0.6798	-1732.95
0.3343,0.6657	-1742.13
0.4089,0.5911	-1745.02
0.3788,0.6212	-1741.34
0.3252,0.6748	-1737.38
0.4213,0.5787	-1742.18
0.3244,0.6756	-1733.73
0.3063,0.6937	-1732.16
0.3985,0.6015	-1744.43
0.3900,0.6100	-1745.23
0.3029,0.6971	-1733.85
0.4650,0.5350	-1747.73
0.3412,0.6588	-1736.02
0.3188,0.6812	-1737.50
0.4134,0.5866	-1743.73
0.3659,0.6341	-1741.14
0.3139,0.6861	-1735.27
0.3765,0.6235	-1740.28
0.3640,0.6360	-1740.57
0.3383,0.6617	-1737.32
0.4067,0.5933	-1748.37
0.3193,0.6807	-1735.21
0.2890,0.7110	-1727.99
0.3576,0.6424	-1743.46
0.3339,0.6661	-1738.70
0.3630,0.6370	-1738.31
0.3551,0.6449	-1731.57
0.3183,0.6817	-1729.89
0.2953,0.7047	-1734.93
0.3681,0.6319	-1739.54
0.3788,0.6212	-1747.77
0.3385,0.6615	-1741.34
0.3366,0.6634	-1735.28
0.3500,0.6500	-1733.10
0.3142,0.6858	-1736.05
0.3493,0.6507	-1743.02
0.3498,0.6502	-1734.33
0.3211,0.6789	-1735.95
0.4029,0.5971	-1744.12
0.3613,0.6387	-1736.56
0.2944,0.7056	-1729.72
0.3689,0.6311	-1737.42
0.3050,0.6950	-1732.17
0.3645,0.6355	-1736.13
0.4035,0.5965	-1746.87
0.3598,0.6402	-1736.50
0.3026,0.6974	-1728.85
0.3694,0.6306	-1745.46
0.3060,0.6940	-1736.25
0.3113,0.6887	-1733.73
0.4262,0.5738	-1746.12
0.3308,0.6692	-1738.03
0.3426,0.6574	-1737.99
0.3689,0.6311	-1741.17
0.2623,0.7377	-1739.15
0.2856,0.7144	-1731.70
0.4605,0.5395	-1747.91
0.3051,0.6949	-1739.57
0.3296,0.6704	-1739.47
0.3219,0.6781	-1735.20
0.2610,0.7390	-1725.76
0.2851,0.7149	-1727.12
0.3979,0.6021	-1738.63
0.3616,0.6384	-1743.39
0.3833,0.6167	-1738.12
0.2757,0.7243	-1737.90
0.2859,0.7141	-1736.26
0.3147,0.6853	-1738.37
0.3689,0.6311	-1742.25
0.3509,0.6491	-1734.37
0.3881,0.6119	-1741.59
0.2900,0.7100	-1729.78
0.2693,0.7307	-1730.47
0.3482,0.6518	-1736.15
0.3878,0.6122	-1740.66
0.3672,0.6328	-1742.24
0.3596,0.6404	-1741.11
0.3167,0.6833	-1739.85
0.3216,0.6784	-1738.93
0.3467,0.6533	-1738.02
0.3794,0.6206	-1740.37
0.2994,0.7006	-1742.44
0.3940,0.6060	-1746.09
0.3291,0.6709	-1735.20
0.3269,0.6731	-1733.03
0.3933,0.6067	-1743.50
0.3707,0.6293	-1735.91
0.3555,0.6445	-1737.55
0.3789,0.6211	-1734.92
0.3451,0.6549	-1734.80
0.3158,0.6842	-1736.02
0.3307,0.6693	-1733.10
0.3524,0.6476	-1740.52
0.3432,0.6568	-1741.89
0.3938,0.6062	-1743.51
0.3482,0.6518	-1738.66
0.3348,0.6652	-1733.88
0.3482,0.6518	-1739.29
0.3564,0.6436	-1742.89
0.3741,0.6259	-1740.22
0.3604,0.6396	-1741.11
0.2941,0.7059	-1727.97
0.3242,0.6758	-1732.26
0.3332,0.6668	-1738.01
0.3357,0.6643	-1741.41
0.3390,0.6610	-1738.66
0.3389,0.6611	-1730.64
0.2828,0.7172	-1729.94
0.3403,0.6597	-1737.99
0.3618,0.6382	-1739.42
0.3481,0.6519	-1739.92
0.3169,0.6831	-1729.86
0.3432,0.6568	-1732.15
0.2666,0.7334	-1729.61
0.3577,0.6423	-1744.04
0.3496,0.6504	-1734.32
0.3513,0.6487	-1738.69
0.3125,0.6875	-1725.83
0.3733,0.6267	-1737.61
0.2573,0.7427	-1732.28
0.3661,0.6339	-1739.50
0.3650,0.6350	-1744.46
0.4052,0.5948	-1745.71
0.3519,0.6481	-1742.35
0.3549,0.6451	-1739.92
0.3110,0.6890	-1730.55
0.3452,0.6548	-1741.21
0.3529,0.6471	-1739.91
0.3754,0.6246	-1742.29
0.3205,0.6795	-1735.96
0.3486,0.6514	-1733.66
0.2807,0.7193	-1731.88
0.3161,0.6839	-1729.07
0.3884,0.6116	-1742.05
0.3852,0.6148	-1738.23
0.3222,0.6778	-1740.40
0.3581,0.6419	-1739.36
0.3021,0.6979	-1730.52
0.3286,0.6714	-1741.63
0.4328,0.5672	-1746.06
0.3414,0.6586	-1743.25
0.3085,0.6915	-1732.95
0.3405,0.6595	-1740.63
0.2905,0.7095	-1736.02
0.3757,0.6243	-1743.31
0.4241,0.5759	-1745.76
0.3120,0.6880	-1740.84
0.3228,0.6772	-1732.97
0.3233,0.6767	-1734.46
0.2513,0.7487	-1727.35
0.3581,0.6419	-1735.28
0.4123,0.5877	-1742.97
0.3755,0.6245	-1739.75
0.3373,0.6627	-1744.74
0.3609,0.6391	-1737.69
0.3005,0.6995	-1733.91
0.3731,0.6269	-1738.64
0.4330,0.5670	-1745.26
0.3962,0.6038	-1742.71
0.2764,0.7236	-1734.00
0.3223,0.6777	-1741.14
0.2934,0.7066	-1729.73
0.3628,0.6372	-1739.43
0.4364,0.5636	-1747.99
0.3623,0.6377	-1740.55
0.2920,0.7080	-1737.72
0.2959,0.7041	-1734.04
0.3055,0.6945	-1737.91
0.3886,0.6114	-1742.06
0.3734,0.6266	-1742.79
0.3467,0.6533	-1736.12
0.2823,0.7177	-1729.02
0.2889,0.7111	-1727.99
0.2993,0.7007	-1737.34
0.3976,0.6024	-1736.94
0.3661,0.6339	-1732.91
0.3521,0.6479	-1737.47
0.2625,0.7375	-1726.73
0.3196,0.6804	-1729.92
0.2966,0.7034	-1723.65
0.3750,0.6250	-1743.31
0.3278,0.6722	-1741.66
0.3210,0.6790	-1732.95
0.3285,0.6715	-1731.63
0.3522,0.6478	-1734.43
0.3670,0.6330	-1741.70
0.3883,0.6117	-1740.23
0.3338,0.6662	-1742.15
0.2710,0.7290	-1737.31
0.2990,0.7010	-1726.28
0.3360,0.6640	-1739.36
0.3168,0.6832	-1736.00
0.3913,0.6087	-1741.25
0.3382,0.6618	-1740.67
0.3034,0.6966	-1731.35
0.2963,0.7037	-1728.84
0.3378,0.6622	-1740.01
0.3222,0.6778	-1738.17
0.3613,0.6387	-1738.27
0.3268,0.6732	-1729.41
0.3061,0.6939	-1733.79
0.3234,0.6766	-1740.36
0.3380,0.6620	-1742.02
0.2930,0.7070	-1735.02
0.3334,0.6666	-1731.77
0.3032,0.6968	-1741.34
0.3112,0.6888	-1725.78
0.3439,0.6561	-1737.35
0.3208,0.6792	-1740.46
0.2807,0.7193	-1725.29
0.3333,0.6667	-1733.85
0.3385,0.6615	-1738.66
0.2618,0.7382	-1723.65
0.3515,0.6485	-1738.69
0.3551,0.6449	-1736.94
0.3010,0.6990	-1734.74
0.3580,0.6420	-1731.18
0.3218,0.6782	-1735.20
0.3109,0.6891	-1731.34
0.3561,0.6439	-1729.27
0.3720,0.6280	-1739.12
0.3344,0.6656	-1739.38
0.3573,0.6427	-1731.72
0.3284,0.6716	-1728.05
0.3257,0.6743	-1733.74
0.3698,0.6302	-1737.99
0.4163,0.5837	-1742.16
0.3416,0.6584	-1741.27
0.3344,0.6656	-1735.25
0.2707,0.7293	-1729.41
0.2593,0.7407	-1736.33
0.3887,0.6113	-1744.32
0.4163,0.5837	-1745.88
0.3737,0.6263	-1742.27
0.3114,0.6886	-1728.17
0.3059,0.6941	-1732.98
0.2520,0.7480	-1728.39
0.3657,0.6343	-1741.69
0.3784,0.6216	-1741.83
0.4103,0.5897	-1742.15
0.3186,0.6814	-1735.22
0.2898,0.7102	-1734.26
0.2601,0.7399	-1731.03
0.4088,0.5912	-1740.59
0.3583,0.6417	-1744.02
0.3499,0.6501	-1738.67
0.3177,0.6823	-1733.70
0.3117,0.6883	-1743.23
0.2449,0.7551	-1722.17
0.4138,0.5862	-1743.05
0.3674,0.6326	-1740.61
0.3563,0.6437	-1742.89
0.3139,0.6861	-1735.27
0.3372,0.6628	-1734.61
0.2876,0.7124	-1731.63
0.4085,0.5915	-1743.53
0.3365,0.6635	-1742.07
0.3729,0.6271	-1737.07
0.2892,0.7108	-1733.39
0.3276,0.6724	-1737.35
0.3168,0.6832	-1738.31
0.4147,0.5853	-1744.82
0.3485,0.6515	-1743.04
0.3908,0.6092	-1738.57
0.2800,0.7200	-1729.08
0.3430,0.6570	-1739.30
0.3356,0.6644	-1735.95
0.3848,0.6152	-1742.90
0.3677,0.6323	-1741.70
0.3717,0.6283	-1744.36
0.3022,0.6978	-1738.89
0.3805,0.6195	-1739.92
0.2968,0.7032	-1729.70
0.4474,0.5526	-1747.77
0.3599,0.6401	-1736.50
0.3197,0.6803	-1728.41
0.3649,0.6351	-1743.35
0.4434,0.5566	-1747.20
0.3260,0.6740	-1728.66
0.4371,0.5629	-1746.74
0.3328,0.6672	-1735.23
0.3096,0.6904	-1738.56
0.3480,0.6520	-1739.29
0.4378,0.5622	-1745.76
0.3333,0.6667	-1739.40
0.4256,0.5744	-1745.21
0.3567,0.6433	-1736.98
0.3146,0.6854	-1736.82
0.2805,0.7195	-1740.37
0.4245,0.5755	-1745.16
0.3324,0.6676	-1737.32
0.4242,0.5758	-1746.37
0.3154,0.6846	-1745.33
0.3472,0.6528	-1739.92
0.3201,0.6799	-1737.47
0.3886,0.6114	-1738.43
0.3252,0.6748	-1740.30
0.3880,0.6120	-1742.50
0.2894,0.7106	-1726.19
0.3429,0.6571	-1737.34
0.3560,0.6440	-1740.52
0.3084,0.6916	-1732.15
0.3109,0.6891	-1730.55
0.3197,0.6803	-1727.66
0.3375,0.6625	-1737.31
0.3213,0.6787	-1738.19
0.3423,0.6577	-1736.03
0.2690,0.7310	-1725.49
0.3192,0.6808	-1733.70
0.2900,0.7100	-1736.94
0.3354,0.6646	-1739.36
0.3782,0.6218	-1737.85
0.3464,0.6536	-1739.29
0.2819,0.7181	-1721.55
0.3020,0.6980	-1732.20
0.2948,0.7052	-1729.71
0.3626,0.6374	-1732.09
0.3014,0.6986	-1733.05
0.3651,0.6349	-1745.01
0.3252,0.6748	-1733.73
0.3518,0.6482	-1740.52
0.3052,0.6948	-1732.99
0.3608,0.6392	-1737.68
0.3396,0.6604	-1735.99
0.3568,0.6432	-1740.52
0.3646,0.6354	-1741.69
0.3330,0.6670	-1741.49
0.3252,0.6748	-1735.19
0.4335,0.5665	-1745.28
0.2929,0.7071	-1735.91
0.3348,0.6652	-1735.94
0.3721,0.6279	-1743.31
0.3012,0.6988	-1729.68
0.3399,0.6601	-1736.00
0.4395,0.5605	-1744.64
0.3323,0.6677	-1730.34
0.3511,0.6489	-1741.14
0.3520,0.6480	-1738.69
0.3724,0.6276	-1740.70
0.3538,0.6462	-1739.31
0.4437,0.5563	-1747.21
0.3775,0.6225	-1736.81
0.3907,0.6093	-1746.12
0.3622,0.6378	-1737.72
0.3374,0.6626	-1737.31
0.3591,0.6409	-1738.22
0.4268,0.5732	-1747.32
0.4014,0.5986	-1743.28
0.4131,0.5869	-1745.12
0.3525,0.6475	-1739.91
0.3317,0.6683	-1733.82
0.3684,0.6316	-1739.55
0.4178,0.5822	-1747.57
0.3546,0.6454	-1738.72
0.4065,0.5935	-1741.95
0.3249,0.6751	-1733.00
0.3297,0.6703	-1737.34
0.3447,0.6553	-1739.93
0.4124,0.5876	-1742.62
0.3639,0.6361	-1741.69
0.3788,0.6212	-1738.87
0.3316,0.6684	-1740.13
0.3267,0.6733	-1733.75
0.3467,0.6533	-1735.48
0.3672,0.6328	-1742.79
0.3328,0.6672	-1731.06
0.3633,0.6367	-1737.76
0.3548,0.6452	-1736.93
0.3721,0.6279	-1740.69
0.3236,0.6764	-1741.83
