#isoforms=['ENSG00000101294.SE.1.A.up_ENSG00000101294.SE.1.A.SE1_ENSG00000101294.SE.1.A.dn','ENSG00000101294.SE.1.B.up_ENSG00000101294.SE.1.B.dn']	exon_lens=('ENSG00000101294.SE.1.A.up',99),('ENSG00000101294.SE.1.A.SE1',376),('ENSG00000101294.SE.1.A.dn',89),('ENSG00000101294.SE.1.B.up',99),('ENSG00000101294.SE.1.B.dn',89)	iters=5000	burn_in=500	lag=10	percent_accept=81.84	proposal_type=drift	counts=(0,0):498,(1,0):312,(1,1):317	assigned_counts=0:434,1:195	chrom=chr20	strand=+	mRNA_starts=31527484,31527484	mRNA_ends=31545035,31545035
sampled_psi	log_score
0.3551,0.6449	-4057.95
0.4495,0.5505	-4071.54
0.3449,0.6551	-4057.67
0.3390,0.6610	-4048.64
0.2865,0.7135	-4047.49
0.3730,0.6270	-4067.33
0.3834,0.6166	-4061.22
0.4254,0.5746	-4065.07
0.3269,0.6731	-4051.73
0.3513,0.6487	-4052.53
0.3654,0.6346	-4065.60
0.3674,0.6326	-4058.43
0.3715,0.6285	-4052.69
0.4072,0.5928	-4068.43
0.3135,0.6865	-4036.27
0.3616,0.6384	-4061.85
0.4263,0.5737	-4067.84
0.3966,0.6034	-4065.93
0.4096,0.5904	-4067.00
0.3816,0.6184	-4066.97
0.3784,0.6216	-4065.10
0.3970,0.6030	-4069.69
0.4271,0.5729	-4068.48
0.4140,0.5860	-4064.74
0.3498,0.6502	-4053.76
0.3843,0.6157	-4067.37
0.3649,0.6351	-4049.00
0.4243,0.5757	-4068.62
0.4043,0.5957	-4065.31
0.4290,0.5710	-4066.31
0.3234,0.6766	-4053.41
0.3656,0.6344	-4057.32
0.3693,0.6307	-4046.67
0.3685,0.6315	-4063.29
0.4110,0.5890	-4070.29
0.3313,0.6687	-4057.15
0.3611,0.6389	-4060.15
0.3604,0.6396	-4050.99
0.3227,0.6773	-4047.53
0.3354,0.6646	-4053.44
0.3973,0.6027	-4068.44
0.3429,0.6571	-4053.86
0.3953,0.6047	-4065.92
0.3757,0.6243	-4063.14
0.3645,0.6355	-4057.87
0.3829,0.6171	-4068.84
0.4076,0.5924	-4066.20
0.3616,0.6384	-4061.85
0.3958,0.6042	-4061.69
0.3763,0.6237	-4058.58
0.3479,0.6521	-4050.64
0.3711,0.6289	-4060.05
0.4246,0.5754	-4064.69
0.3839,0.6161	-4065.01
0.3895,0.6105	-4060.51
0.4029,0.5971	-4057.00
0.4292,0.5708	-4067.18
0.3449,0.6551	-4049.97
0.3848,0.6152	-4064.07
0.4159,0.5841	-4066.23
0.3456,0.6544	-4056.36
0.3407,0.6593	-4044.68
0.4345,0.5655	-4064.76
0.3198,0.6802	-4058.98
0.3761,0.6239	-4056.55
0.3412,0.6588	-4057.20
0.3455,0.6545	-4061.47
0.3151,0.6849	-4044.04
0.3814,0.6186	-4060.69
0.3361,0.6639	-4056.82
0.3675,0.6325	-4063.32
0.3452,0.6548	-4064.06
0.3933,0.6067	-4064.60
0.3619,0.6381	-4056.73
0.4043,0.5957	-4063.76
0.3527,0.6473	-4053.15
0.3385,0.6615	-4058.02
0.3759,0.6241	-4066.68
0.3693,0.6307	-4054.70
0.3889,0.6111	-4060.48
0.3716,0.6284	-4061.63
0.3808,0.6192	-4067.48
0.3572,0.6428	-4053.80
0.3497,0.6503	-4050.04
0.3336,0.6664	-4050.75
0.3958,0.6042	-4063.38
0.3925,0.6075	-4062.84
0.3416,0.6584	-4056.52
0.3466,0.6534	-4056.96
0.3646,0.6354	-4062.31
0.3079,0.6921	-4054.94
0.3811,0.6189	-4061.65
0.4136,0.5864	-4068.20
0.3246,0.6754	-4058.46
0.3682,0.6318	-4058.44
0.3907,0.6093	-4066.34
0.3790,0.6210	-4052.25
0.3853,0.6147	-4063.14
0.4131,0.5869	-4067.83
0.3544,0.6456	-4056.77
0.3920,0.6080	-4068.97
0.3569,0.6431	-4059.09
0.3574,0.6426	-4068.47
0.3444,0.6556	-4064.13
0.4191,0.5809	-4067.74
0.3540,0.6460	-4060.38
0.3894,0.6106	-4060.05
0.3457,0.6543	-4054.44
0.3596,0.6404	-4060.77
0.3566,0.6434	-4060.28
0.4279,0.5721	-4069.69
0.3404,0.6596	-4054.59
0.3427,0.6573	-4057.13
0.3424,0.6576	-4044.74
0.4076,0.5924	-4069.56
0.3466,0.6534	-4050.62
0.4474,0.5526	-4070.96
0.3467,0.6533	-4054.42
0.3500,0.6500	-4056.24
0.4011,0.5989	-4068.41
0.3868,0.6132	-4065.92
0.3878,0.6122	-4059.52
0.3945,0.6055	-4055.63
0.3001,0.6999	-4053.48
0.3295,0.6705	-4053.03
0.3570,0.6430	-4063.21
0.3514,0.6486	-4059.28
0.3877,0.6123	-4059.97
0.3754,0.6246	-4054.49
0.3417,0.6583	-4055.86
0.3540,0.6460	-4054.37
0.3542,0.6458	-4055.57
0.3561,0.6439	-4054.38
0.4167,0.5833	-4067.96
0.4054,0.5946	-4064.59
0.3966,0.6034	-4065.09
0.3345,0.6655	-4050.73
0.3722,0.6278	-4061.10
0.3639,0.6361	-4055.63
0.3728,0.6272	-4059.02
0.3779,0.6221	-4060.63
0.3858,0.6142	-4068.72
0.3539,0.6461	-4056.78
0.3469,0.6531	-4053.16
0.3633,0.6367	-4058.99
0.4016,0.5984	-4066.81
0.3918,0.6082	-4067.22
0.3538,0.6462	-4056.17
0.3470,0.6530	-4062.01
0.3254,0.6746	-4051.82
0.3367,0.6633	-4052.03
0.3892,0.6108	-4065.90
0.3853,0.6147	-4061.74
0.3538,0.6462	-4045.33
0.3559,0.6441	-4059.72
0.3524,0.6476	-4054.98
0.3587,0.6413	-4061.38
0.3583,0.6417	-4059.64
0.3875,0.6125	-4067.29
0.3299,0.6701	-4054.42
0.3476,0.6524	-4063.86
0.3416,0.6584	-4048.65
0.3924,0.6076	-4066.33
0.3789,0.6211	-4060.15
0.3612,0.6388	-4060.15
0.3455,0.6545	-4054.45
0.3831,0.6169	-4061.69
0.3576,0.6424	-4057.91
0.3629,0.6371	-4046.61
0.3953,0.6047	-4057.41
0.3936,0.6064	-4065.90
0.3156,0.6844	-4056.40
0.3491,0.6509	-4053.77
0.3669,0.6331	-4059.52
0.3339,0.6661	-4047.29
0.3974,0.6026	-4065.52
0.3722,0.6278	-4056.92
0.3361,0.6639	-4065.66
0.3523,0.6477	-4057.41
0.4167,0.5833	-4068.30
0.3371,0.6629	-4060.14
0.4371,0.5629	-4068.93
0.3616,0.6384	-4060.14
0.3641,0.6359	-4059.54
0.4181,0.5819	-4065.38
0.4115,0.5885	-4068.14
0.3401,0.6599	-4060.57
0.4059,0.5941	-4064.62
0.3737,0.6263	-4057.49
0.3667,0.6333	-4062.25
0.3909,0.6091	-4063.24
0.4099,0.5901	-4061.92
0.3368,0.6632	-4051.35
0.3981,0.6019	-4060.99
0.4162,0.5838	-4072.00
0.3852,0.6148	-4066.41
0.3706,0.6294	-4055.81
0.3344,0.6656	-4049.35
0.3367,0.6633	-4056.10
0.3746,0.6254	-4068.79
0.3800,0.6200	-4059.19
0.3635,0.6365	-4064.59
0.3594,0.6406	-4052.68
0.3745,0.6255	-4054.43
0.3579,0.6421	-4052.06
0.3760,0.6240	-4062.63
0.4346,0.5654	-4069.52
0.3580,0.6420	-4051.48
0.3471,0.6529	-4050.63
0.3863,0.6137	-4062.22
0.3788,0.6212	-4056.68
0.3394,0.6606	-4053.30
0.4143,0.5857	-4067.53
0.3749,0.6251	-4068.77
0.3824,0.6176	-4058.32
0.3828,0.6172	-4063.11
0.4091,0.5909	-4061.84
0.3150,0.6850	-4045.60
0.3610,0.6390	-4056.16
0.3473,0.6527	-4053.78
0.3453,0.6547	-4051.25
0.3484,0.6516	-4048.76
0.4180,0.5820	-4065.69
0.3367,0.6633	-4043.22
0.3554,0.6446	-4063.30
0.3341,0.6659	-4053.50
0.3605,0.6395	-4059.02
0.3709,0.6291	-4063.75
0.3888,0.6112	-4059.12
0.3935,0.6065	-4062.44
0.3541,0.6459	-4057.97
0.3375,0.6625	-4054.04
0.3983,0.6017	-4065.54
0.3483,0.6517	-4065.05
0.3624,0.6376	-4060.69
0.3861,0.6139	-4058.97
0.3654,0.6346	-4061.73
0.3256,0.6744	-4056.17
0.3726,0.6274	-4051.20
0.3371,0.6629	-4063.52
0.3909,0.6091	-4060.13
0.3865,0.6135	-4056.68
0.3689,0.6311	-4057.37
0.3501,0.6499	-4062.42
0.3699,0.6301	-4062.71
0.3179,0.6821	-4061.50
0.4100,0.5900	-4073.57
0.3673,0.6327	-4058.97
0.3569,0.6431	-4054.38
0.3444,0.6556	-4062.84
0.3631,0.6369	-4055.05
0.3653,0.6347	-4063.95
0.4028,0.5972	-4069.59
0.3950,0.6050	-4059.52
0.3684,0.6316	-4061.67
0.3884,0.6116	-4059.10
0.3645,0.6355	-4058.42
0.3599,0.6401	-4052.12
0.4340,0.5660	-4068.95
0.3503,0.6497	-4051.29
0.3424,0.6576	-4052.57
0.3669,0.6331	-4057.34
0.3680,0.6320	-4050.32
0.3249,0.6751	-4057.69
0.4394,0.5606	-4069.13
0.3481,0.6519	-4044.99
0.3482,0.6518	-4053.78
0.3634,0.6366	-4058.43
0.3672,0.6328	-4057.34
0.3680,0.6320	-4056.81
0.4320,0.5680	-4069.08
0.3192,0.6808	-4049.20
0.3560,0.6440	-4059.12
0.3662,0.6338	-4058.97
0.3930,0.6070	-4060.25
0.4148,0.5852	-4065.48
0.4118,0.5882	-4070.65
0.3613,0.6387	-4052.17
0.3881,0.6119	-4064.54
0.3571,0.6429	-4050.86
0.3774,0.6226	-4056.11
0.3736,0.6264	-4054.38
0.4144,0.5856	-4068.22
0.3574,0.6426	-4052.04
0.3650,0.6350	-4061.19
0.3200,0.6800	-4045.39
0.3766,0.6234	-4062.62
0.3451,0.6549	-4047.41
0.3659,0.6341	-4056.22
0.3722,0.6278	-4058.49
0.3508,0.6492	-4051.91
0.3339,0.6661	-4045.91
0.3825,0.6175	-4056.41
0.3613,0.6387	-4058.44
0.3447,0.6553	-4052.54
0.3509,0.6491	-4058.68
0.3702,0.6298	-4061.11
0.3179,0.6821	-4059.97
0.3766,0.6234	-4058.59
0.3626,0.6374	-4057.30
0.3450,0.6550	-4052.54
0.3635,0.6365	-4061.79
0.3768,0.6232	-4052.05
0.3239,0.6761	-4040.87
0.3502,0.6498	-4053.14
0.3146,0.6854	-4049.51
0.3705,0.6295	-4056.34
0.3840,0.6160	-4053.20
0.3848,0.6152	-4061.25
0.3504,0.6496	-4061.79
0.3756,0.6244	-4064.66
0.3359,0.6641	-4052.74
0.3516,0.6484	-4053.76
0.3239,0.6761	-4050.43
0.3626,0.6374	-4060.12
0.3197,0.6803	-4047.67
0.4201,0.5799	-4064.88
0.3963,0.6037	-4067.61
0.3198,0.6802	-4042.38
0.3312,0.6688	-4043.10
0.3600,0.6400	-4057.88
0.3507,0.6493	-4053.76
0.4160,0.5840	-4063.53
0.3845,0.6155	-4062.19
0.3348,0.6652	-4040.42
0.3386,0.6614	-4049.31
0.4077,0.5923	-4064.33
0.3766,0.6234	-4065.14
0.4052,0.5948	-4064.19
0.3620,0.6380	-4059.00
0.3566,0.6434	-4045.53
0.3557,0.6443	-4050.81
0.3860,0.6140	-4060.82
0.3583,0.6417	-4057.31
0.4022,0.5978	-4067.22
0.3761,0.6239	-4060.60
0.3538,0.6462	-4064.61
0.3368,0.6632	-4055.42
0.3640,0.6360	-4058.98
0.3706,0.6294	-4058.99
0.3638,0.6362	-4050.04
0.3760,0.6240	-4065.16
0.3144,0.6856	-4050.30
0.3418,0.6582	-4052.58
0.3937,0.6063	-4062.88
0.3638,0.6362	-4055.63
0.3333,0.6667	-4063.24
0.3760,0.6240	-4059.59
0.3293,0.6707	-4050.90
0.3529,0.6471	-4058.61
0.3504,0.6496	-4056.23
0.3853,0.6147	-4058.93
0.3267,0.6733	-4061.86
0.3667,0.6333	-4057.88
0.3144,0.6856	-4044.85
0.3513,0.6487	-4050.08
0.4035,0.5965	-4064.11
0.3477,0.6523	-4056.30
0.3398,0.6602	-4053.95
0.3568,0.6432	-4059.69
0.3584,0.6416	-4066.63
0.3455,0.6545	-4062.12
0.3784,0.6216	-4066.09
0.3673,0.6327	-4060.60
0.3495,0.6505	-4055.01
0.3587,0.6413	-4065.44
0.3484,0.6516	-4060.66
0.3521,0.6479	-4056.81
0.3711,0.6289	-4056.89
0.3559,0.6441	-4043.11
0.3777,0.6223	-4053.63
0.3420,0.6580	-4055.85
0.3749,0.6251	-4052.41
0.3733,0.6267	-4059.03
0.3542,0.6458	-4051.36
0.3527,0.6473	-4062.87
0.3979,0.6021	-4063.05
0.3526,0.6474	-4055.58
0.3851,0.6149	-4062.67
0.3342,0.6658	-4045.91
0.3549,0.6451	-4058.55
0.3673,0.6327	-4056.80
0.3529,0.6471	-4059.22
0.3582,0.6418	-4061.98
0.3703,0.6297	-4065.36
0.3551,0.6449	-4057.35
0.3319,0.6681	-4045.91
0.3900,0.6100	-4063.66
0.3497,0.6503	-4056.87
0.3783,0.6217	-4061.13
0.3639,0.6361	-4065.13
0.4634,0.5366	-4072.69
0.3407,0.6593	-4050.62
0.3872,0.6128	-4068.67
0.3709,0.6291	-4060.05
0.3256,0.6744	-4051.80
0.3908,0.6092	-4064.57
0.4459,0.5541	-4074.31
0.3621,0.6379	-4062.40
0.3709,0.6291	-4054.77
0.3616,0.6384	-4054.46
0.3353,0.6647	-4049.34
0.3510,0.6490	-4057.45
0.3738,0.6262	-4060.58
0.4210,0.5790	-4069.42
0.3618,0.6382	-4070.36
0.3536,0.6464	-4061.00
0.3717,0.6283	-4054.80
0.3328,0.6672	-4050.08
0.3451,0.6549	-4051.25
0.4256,0.5744	-4068.39
0.3160,0.6840	-4040.91
0.3301,0.6699	-4041.67
0.3736,0.6264	-4051.80
0.3558,0.6442	-4057.94
0.3092,0.6908	-4041.92
0.4138,0.5862	-4068.55
0.3378,0.6622	-4047.29
0.3640,0.6360	-4045.03
0.3750,0.6250	-4063.66
0.3488,0.6512	-4055.64
0.3298,0.6702	-4048.75
0.4153,0.5847	-4066.20
0.3503,0.6497	-4055.61
0.3799,0.6201	-4055.76
0.3553,0.6447	-4049.60
0.3415,0.6585	-4056.53
0.3202,0.6798	-4054.42
0.3733,0.6267	-4061.62
0.3565,0.6435	-4061.47
0.3512,0.6488	-4057.44
0.3535,0.6465	-4053.76
0.3861,0.6139	-4064.07
0.3393,0.6607	-4049.97
0.4158,0.5842	-4065.20
0.3725,0.6275	-4064.23
0.3597,0.6403	-4057.30
0.3625,0.6375	-4053.35
0.4018,0.5982	-4065.62
0.3582,0.6418	-4050.90
0.3837,0.6163	-4061.70
0.3703,0.6297	-4057.93
0.3590,0.6410	-4050.93
0.3467,0.6533	-4053.16
0.4265,0.5735	-4072.00
0.4155,0.5845	-4067.23
0.3630,0.6370	-4058.99
0.3431,0.6569	-4061.00
0.3487,0.6513	-4053.15
0.3878,0.6122	-4058.60
0.4116,0.5884	-4067.07
0.3244,0.6756	-4057.75
0.3958,0.6042	-4063.38
0.3623,0.6377	-4049.38
0.3609,0.6391	-4063.01
0.3724,0.6276	-4059.01
0.4316,0.5684	-4074.55
0.3567,0.6433	-4049.08
0.3919,0.6081	-4064.58
0.3894,0.6106	-4064.10
0.3941,0.6059	-4062.89
0.4004,0.5996	-4064.78
0.4018,0.5982	-4068.41
0.3863,0.6137	-4058.98
0.3484,0.6516	-4054.40
0.4195,0.5805	-4068.40
0.3567,0.6433	-4060.28
0.3668,0.6332	-4066.07
0.4287,0.5713	-4071.16
0.4019,0.5981	-4059.66
0.3577,0.6423	-4054.98
0.4205,0.5795	-4071.97
0.3792,0.6208	-4064.10
0.3394,0.6606	-4045.31
0.4084,0.5916	-4063.26
0.4053,0.5947	-4071.87
0.3773,0.6227	-4056.11
0.3598,0.6402	-4061.34
0.3717,0.6283	-4057.95
0.3747,0.6253	-4066.22
0.3528,0.6472	-4063.47
0.4053,0.5947	-4064.20
0.3601,0.6399	-4060.75
0.3687,0.6313	-4054.14
0.3849,0.6151	-4055.63
0.3441,0.6559	-4051.90
0.3638,0.6362	-4060.10
0.3865,0.6135	-4059.45
0.3325,0.6675	-4045.21
0.3508,0.6492	-4055.61
0.3785,0.6215	-4063.61
0.3164,0.6836	-4050.92
0.3385,0.6615	-4047.30
0.3707,0.6293	-4051.58
0.3683,0.6317	-4055.74
0.3911,0.6089	-4068.11
0.3822,0.6178	-4063.11
0.3287,0.6713	-4053.78
0.3136,0.6864	-4055.06
0.3774,0.6226	-4058.11
0.3734,0.6266	-4061.62
0.3593,0.6407	-4067.72
0.3922,0.6078	-4061.96
0.3205,0.6795	-4057.40
0.3194,0.6806	-4037.09
0.3724,0.6276	-4059.54
0.3888,0.6112	-4065.00
0.3669,0.6331	-4064.43
0.3519,0.6481	-4062.31
0.3106,0.6894	-4059.40
0.3723,0.6277	-4063.19
0.3889,0.6111	-4053.70
0.3920,0.6080	-4054.04
0.3535,0.6465	-4054.97
0.3532,0.6468	-4066.47
0.3960,0.6040	-4071.41
0.3488,0.6512	-4053.15
0.3961,0.6039	-4062.13
0.3834,0.6166	-4055.52
0.3720,0.6280	-4062.67
0.3641,0.6359	-4059.54
0.3614,0.6386	-4060.72
0.3469,0.6531	-4055.06
0.3944,0.6056	-4056.90
0.4008,0.5992	-4061.98
0.4258,0.5742	-4067.80
0.3600,0.6400	-4057.88
0.3661,0.6339	-4058.97
0.3631,0.6369	-4063.48
0.3925,0.6075	-4061.09
0.3724,0.6276	-4067.36
0.3501,0.6499	-4056.24
0.3787,0.6213	-4053.21
0.3792,0.6208	-4065.58
0.3281,0.6719	-4058.84
0.3711,0.6289	-4053.20
0.3706,0.6294	-4060.05
0.3803,0.6197	-4065.55
0.4166,0.5834	-4065.60
0.4064,0.5936	-4071.08
0.3273,0.6727	-4048.83
0.3619,0.6381	-4058.43
0.3228,0.6772	-4049.01
0.3619,0.6381	-4060.70
0.3917,0.6083	-4065.46
0.3325,0.6675	-4054.97
0.3344,0.6656	-4051.42
0.3621,0.6379	-4053.90
0.3639,0.6361	-4064.01
0.3655,0.6345	-4059.53
0.3956,0.6044	-4059.56
0.4089,0.5911	-4063.30
0.3508,0.6492	-4048.22
0.3548,0.6452	-4060.35
0.3722,0.6278	-4055.35
0.4146,0.5854	-4066.16
0.3828,0.6172	-4061.68
0.4564,0.5436	-4071.44
0.3499,0.6501	-4064.91
0.4431,0.5569	-4072.90
0.3629,0.6371	-4052.80
0.3557,0.6443	-4051.40
0.3804,0.6196	-4059.69
0.4341,0.5659	-4062.05
0.3638,0.6362	-4060.66
0.4250,0.5750	-4068.06
0.3403,0.6597	-4057.25
0.3436,0.6564	-4051.91
0.3701,0.6299	-4057.92
0.4114,0.5886	-4067.42
0.3313,0.6687	-4050.82
0.3967,0.6033	-4065.93
0.3494,0.6506	-4051.28
0.3590,0.6410	-4055.57
0.3535,0.6465	-4056.78
0.3878,0.6122	-4061.34
0.3759,0.6241	-4054.01
0.3605,0.6395	-4063.03
0.3846,0.6154	-4058.43
0.3039,0.6961	-4049.66
0.3393,0.6607	-4057.30
0.4559,0.5441	-4071.92
0.4372,0.5628	-4071.72
0.3600,0.6400	-4055.58
0.3647,0.6353	-4053.43
0.3479,0.6521	-4058.81
0.3489,0.6511	-4056.26
0.4099,0.5901	-4063.73
0.4212,0.5788	-4068.48
0.3853,0.6147	-4065.94
0.3562,0.6438	-4058.52
0.3411,0.6589	-4044.04
0.3624,0.6376	-4056.17
0.3803,0.6197	-4065.06
0.3889,0.6111	-4065.45
0.3546,0.6454	-4047.78
0.4080,0.5920	-4070.68
0.3375,0.6625	-4045.27
0.3745,0.6255	-4063.15
0.3450,0.6550	-4054.46
0.3928,0.6072	-4063.72
0.3475,0.6525	-4065.12
0.4119,0.5881	-4069.22
0.3619,0.6381	-4055.60
0.3615,0.6385	-4052.18
0.3486,0.6514	-4055.02
0.3761,0.6239	-4054.02
0.3618,0.6382	-4061.27
0.3735,0.6265	-4058.51
0.3514,0.6486	-4051.31
0.3697,0.6303	-4057.38
0.3744,0.6256	-4061.10
0.3655,0.6345	-4065.59
0.3426,0.6574	-4055.17
0.3441,0.6559	-4051.90
0.3773,0.6227	-4059.61
0.3281,0.6719	-4060.99
0.4042,0.5958	-4064.92
0.3503,0.6497	-4064.88
0.3364,0.6636	-4050.68
0.3423,0.6577	-4058.45
0.3515,0.6485	-4058.66
0.3278,0.6722	-4045.22
0.3694,0.6306	-4062.73
0.4180,0.5820	-4064.37
0.3773,0.6227	-4059.61
0.3501,0.6499	-4057.47
0.4096,0.5904	-4062.25
0.3715,0.6285	-4063.21
0.4191,0.5809	-4064.15
0.3940,0.6060	-4062.89
0.3744,0.6256	-4059.05
0.3820,0.6180	-4061.67
0.3466,0.6534	-4055.06
0.3794,0.6206	-4062.62
0.3757,0.6243	-4068.72
0.3830,0.6170	-4071.22
0.3845,0.6155	-4062.66
0.4132,0.5868	-4069.94
0.3437,0.6563	-4060.31
0.4037,0.5963	-4068.80
0.3513,0.6487	-4058.67
0.3481,0.6519	-4053.78
0.3982,0.6018	-4065.13
0.4103,0.5897	-4069.93
0.3513,0.6487	-4062.96
0.3564,0.6436	-4057.34
0.3310,0.6690	-4042.39
0.3782,0.6218	-4061.62
0.3673,0.6327	-4056.25
0.3640,0.6360	-4058.98
0.4140,0.5860	-4071.68
0.3344,0.6656	-4050.04
0.3369,0.6631	-4052.70
0.3811,0.6189	-4067.47
0.3784,0.6216	-4058.15
0.3624,0.6376	-4061.25
0.4230,0.5770	-4065.46
0.3490,0.6510	-4040.06
0.3842,0.6158	-4058.40
0.4086,0.5914	-4066.97
0.3055,0.6945	-4041.28
0.3576,0.6424	-4049.12
0.4044,0.5956	-4061.83
0.4008,0.5992	-4060.37
0.3608,0.6392	-4048.15
0.3938,0.6062	-4062.45
0.3315,0.6685	-4057.83
0.3941,0.6059	-4067.20
0.3553,0.6447	-4060.93
0.4048,0.5952	-4068.42
0.3494,0.6506	-4062.47
0.3563,0.6437	-4058.52
0.3274,0.6726	-4050.99
0.4030,0.5970	-4065.66
0.3657,0.6343	-4059.52
0.3950,0.6050	-4063.35
0.3586,0.6414	-4060.22
0.3717,0.6283	-4062.15
0.3348,0.6652	-4057.58
0.3750,0.6250	-4070.81
0.3783,0.6217	-4060.13
0.4095,0.5905	-4063.71
0.3390,0.6610	-4054.65
0.3687,0.6313	-4063.28
0.3319,0.6681	-4057.10
0.4052,0.5948	-4061.89
0.3793,0.6207	-4059.66
0.3773,0.6227	-4060.62
0.3466,0.6534	-4049.99
0.3296,0.6704	-4044.50
0.3590,0.6410	-4056.73
0.3940,0.6060	-4059.44
0.4218,0.5782	-4066.30
0.3987,0.6013	-4065.55
0.3734,0.6266	-4061.10
0.3319,0.6681	-4053.60
0.3271,0.6729	-4048.11
0.4201,0.5799	-4064.24
0.4450,0.5550	-4072.31
0.3961,0.6039	-4063.39
0.3871,0.6129	-4068.22
0.3741,0.6259	-4059.56
0.3700,0.6300	-4062.71
0.4394,0.5606	-4073.03
0.4223,0.5777	-4069.15
0.4052,0.5948	-4059.97
0.3832,0.6168	-4054.55
0.3566,0.6434	-4061.47
0.3737,0.6263	-4061.62
0.4171,0.5829	-4070.65
0.3673,0.6327	-4054.08
0.3836,0.6164	-4063.59
0.3408,0.6592	-4058.54
0.3806,0.6194	-4067.49
0.3920,0.6080	-4063.70
0.4153,0.5847	-4064.15
0.3860,0.6140	-4070.10
0.3631,0.6369	-4050.56
0.3545,0.6455	-4056.77
0.3758,0.6242	-4060.09
0.3588,0.6412	-4056.15
0.3893,0.6107	-4065.90
0.3830,0.6170	-4057.40
0.3521,0.6479	-4054.98
0.3524,0.6476	-4048.28
0.4022,0.5978	-4064.84
0.3600,0.6400	-4066.51
0.4322,0.5678	-4069.09
0.3272,0.6728	-4060.37
0.2973,0.7027	-4039.25
0.3578,0.6422	-4061.41
0.4115,0.5885	-4061.34
0.3949,0.6051	-4065.06
0.4036,0.5964	-4065.29
0.3509,0.6491	-4056.84
0.3426,0.6574	-4053.22
0.3183,0.6817	-4040.12
0.4033,0.5967	-4063.32
0.4183,0.5817	-4062.42
0.3861,0.6139	-4063.61
0.3200,0.6800	-4055.19
0.3505,0.6495	-4056.23
0.3514,0.6486	-4056.82
0.3821,0.6179	-4067.44
0.4315,0.5685	-4067.94
0.3529,0.6471	-4057.40
0.3542,0.6458	-4058.57
0.3314,0.6686	-4048.72
0.3879,0.6121	-4056.79
0.3880,0.6120	-4066.36
0.4074,0.5926	-4066.19
0.3432,0.6568	-4044.12
0.3898,0.6102	-4064.11
0.3350,0.6650	-4071.97
0.3743,0.6257	-4056.48
0.3164,0.6836	-4044.76
0.4042,0.5958	-4066.09
0.3411,0.6589	-4045.35
0.3735,0.6265	-4063.69
0.3513,0.6487	-4056.83
0.3932,0.6068	-4055.92
0.3529,0.6471	-4052.55
0.3964,0.6036	-4068.03
0.3453,0.6547	-4042.30
0.4294,0.5706	-4071.18
0.3430,0.6570	-4050.61
0.3923,0.6077	-4066.77
0.3706,0.6294	-4063.76
0.3688,0.6312	-4058.44
0.3521,0.6479	-4057.42
0.3892,0.6108	-4067.70
0.3494,0.6506	-4058.74
0.4153,0.5847	-4065.86
0.3592,0.6408	-4054.41
0.3605,0.6395	-4064.18
0.3615,0.6385	-4051.61
0.4265,0.5735	-4069.63
0.3626,0.6374	-4056.17
0.3581,0.6419	-4065.49
0.4008,0.5992	-4066.40
0.3663,0.6337	-4055.14
0.3513,0.6487	-4048.85
0.4106,0.5894	-4063.78
0.3497,0.6503	-4058.11
0.3728,0.6272	-4065.78
0.3013,0.6987	-4040.70
0.3509,0.6491	-4043.92
0.3871,0.6129	-4064.08
0.3657,0.6343	-4058.42
0.3725,0.6275	-4060.06
0.3412,0.6588	-4053.91
0.3404,0.6596	-4057.24
0.3342,0.6658	-4055.56
0.4001,0.5999	-4061.53
0.3933,0.6067	-4071.10
0.3657,0.6343	-4065.03
0.3655,0.6345	-4052.91
0.3316,0.6684	-4059.22
0.3096,0.6904	-4043.50
0.3685,0.6315	-4062.75
0.3992,0.6008	-4061.06
0.3634,0.6366	-4053.38
0.3796,0.6204	-4060.16
0.3494,0.6506	-4045.68
0.3152,0.6848	-4037.05
0.3714,0.6286	-4060.58
0.3797,0.6203	-4060.16
0.3513,0.6487	-4046.40
0.3514,0.6486	-4065.40
0.3487,0.6513	-4053.15
0.3484,0.6516	-4050.64
0.3836,0.6164	-4059.80
0.3638,0.6362	-4061.22
0.3164,0.6836	-4040.91
0.3642,0.6358	-4066.22
0.3544,0.6456	-4053.77
0.3688,0.6312	-4057.37
0.3919,0.6081	-4057.55
0.3362,0.6638	-4054.09
0.3658,0.6342	-4053.47
0.3388,0.6612	-4054.65
0.3708,0.6292	-4054.24
0.3608,0.6392	-4053.87
0.3984,0.6016	-4058.54
0.3444,0.6556	-4058.98
0.3821,0.6179	-4058.79
0.3573,0.6427	-4057.91
0.3562,0.6438	-4054.38
0.3655,0.6345	-4065.59
0.3977,0.6023	-4063.04
0.3570,0.6430	-4054.97
0.3692,0.6308	-4054.70
0.3953,0.6047	-4059.11
0.3982,0.6018	-4065.54
0.3393,0.6607	-4048.64
0.4263,0.5737	-4069.62
0.3777,0.6223	-4066.11
0.3513,0.6487	-4055.60
0.3911,0.6089	-4064.57
0.3723,0.6277	-4052.22
0.3321,0.6679	-4044.51
0.4435,0.5565	-4070.42
0.3473,0.6527	-4058.20
0.3417,0.6583	-4053.24
0.4213,0.5787	-4070.70
0.3618,0.6382	-4058.43
0.3926,0.6074	-4068.52
0.4426,0.5574	-4073.81
0.3315,0.6685	-4055.03
0.4025,0.5975	-4056.95
0.4171,0.5829	-4064.29
0.3822,0.6178	-4058.79
0.3974,0.6026	-4059.69
0.3432,0.6568	-4057.10
0.3647,0.6353	-4061.20
0.4232,0.5768	-4071.35
0.4115,0.5885	-4068.50
0.4024,0.5976	-4066.04
0.3651,0.6349	-4051.23
0.3318,0.6682	-4049.41
0.3811,0.6189	-4066.50
0.4063,0.5937	-4058.56
0.3894,0.6106	-4064.10
0.4108,0.5892	-4058.76
0.3323,0.6677	-4063.35
0.3560,0.6440	-4055.56
0.3774,0.6226	-4062.12
0.3788,0.6212	-4062.12
0.4088,0.5912	-4069.93
0.4146,0.5854	-4066.50
0.3591,0.6409	-4051.52
0.3768,0.6232	-4058.09
0.4187,0.5813	-4064.43
0.3766,0.6234	-4065.65
0.4083,0.5917	-4069.19
0.3520,0.6480	-4051.32
0.3325,0.6675	-4052.88
0.3846,0.6154	-4060.31
0.3519,0.6481	-4054.98
0.3786,0.6214	-4059.64
0.3883,0.6117	-4063.18
0.3612,0.6388	-4056.73
0.3593,0.6407	-4053.84
0.3795,0.6205	-4055.25
0.3289,0.6711	-4054.48
0.3439,0.6561	-4053.19
0.3595,0.6405	-4065.39
0.3920,0.6080	-4071.60
0.3154,0.6846	-4045.57
0.3259,0.6741	-4063.42
0.3163,0.6837	-4050.93
0.3399,0.6601	-4046.65
0.3619,0.6381	-4055.60
0.3890,0.6110	-4060.03
0.3123,0.6877	-4052.05
0.3827,0.6173	-4067.90
0.3645,0.6355	-4059.53
0.3478,0.6522	-4065.10
0.3470,0.6530	-4058.22
0.3286,0.6714	-4048.79
0.3249,0.6751	-4051.11
0.3772,0.6228	-4056.60
0.3667,0.6333	-4052.42
0.3836,0.6164	-4059.80
0.3363,0.6637	-4053.41
0.3535,0.6465	-4057.99
0.3152,0.6848	-4044.81
0.3620,0.6380	-4057.30
0.3734,0.6266	-4063.17
0.3617,0.6383	-4064.68
0.3169,0.6831	-4041.67
0.3532,0.6468	-4057.39
0.3253,0.6747	-4043.80
0.3416,0.6584	-4046.02
0.3505,0.6495	-4060.55
0.3606,0.6394	-4057.87
0.3283,0.6717	-4050.23
0.3358,0.6642	-4046.60
0.3266,0.6734	-4046.68
0.3611,0.6389	-4056.73
0.3397,0.6603	-4052.63
0.3464,0.6536	-4047.45
0.3501,0.6499	-4056.85
0.3906,0.6094	-4066.34
0.3533,0.6467	-4053.76
0.3489,0.6511	-4055.64
0.3671,0.6329	-4052.98
0.3826,0.6174	-4065.51
0.3840,0.6160	-4062.18
0.3643,0.6357	-4057.31
0.3574,0.6426	-4059.08
0.3607,0.6393	-4068.17
0.3723,0.6277	-4059.54
0.3723,0.6277	-4069.98
0.3855,0.6145	-4064.07
0.4168,0.5832	-4067.29
0.3390,0.6610	-4053.98
0.3390,0.6610	-4054.65
0.3574,0.6426	-4060.84
0.3747,0.6253	-4063.15
0.3419,0.6581	-4057.17
0.3674,0.6326	-4063.86
0.3647,0.6353	-4058.42
0.3220,0.6780	-4062.45
0.4118,0.5882	-4065.30
0.3846,0.6154	-4066.42
0.3530,0.6470	-4047.70
0.3440,0.6560	-4055.13
0.3624,0.6376	-4050.52
0.3536,0.6464	-4048.94
0.3716,0.6284	-4060.05
0.4066,0.5934	-4064.65
0.3798,0.6202	-4060.66
0.3655,0.6345	-4059.53
0.3761,0.6239	-4059.08
0.3626,0.6374	-4046.02
0.3848,0.6152	-4067.35
0.3645,0.6355	-4054.53
0.4055,0.5945	-4068.42
0.3836,0.6164	-4068.81
0.4093,0.5907	-4066.99
0.3633,0.6367	-4064.04
0.4051,0.5949	-4066.50
0.3757,0.6243	-4066.69
0.3943,0.6057	-4061.62
0.3740,0.6260	-4055.95
0.4018,0.5982	-4062.04
0.3965,0.6035	-4072.23
0.3551,0.6449	-4063.92
0.3767,0.6233	-4061.62
0.3935,0.6065	-4060.28
0.3876,0.6124	-4062.25
0.4243,0.5757	-4071.37
0.4042,0.5958	-4071.52
0.3653,0.6347	-4066.15
0.3632,0.6368	-4055.06
0.3602,0.6398	-4052.13
0.4092,0.5908	-4065.89
0.3722,0.6278	-4063.19
0.3801,0.6199	-4071.42
0.4154,0.5846	-4067.23
0.3286,0.6714	-4068.09
0.3871,0.6129	-4057.65
0.4391,0.5609	-4068.12
0.3635,0.6365	-4060.67
0.3633,0.6367	-4063.48
0.3609,0.6391	-4061.87
0.3696,0.6304	-4052.58
0.3700,0.6300	-4057.92
0.4008,0.5992	-4066.00
0.3462,0.6538	-4073.51
0.3968,0.6032	-4064.68
0.3406,0.6594	-4049.30
0.3457,0.6543	-4067.21
0.3409,0.6591	-4048.64
0.3710,0.6290	-4063.22
0.3900,0.6100	-4059.64
0.3395,0.6605	-4065.27
0.3308,0.6692	-4048.02
0.3633,0.6367	-4057.86
0.3628,0.6372	-4053.36
0.3924,0.6076	-4064.59
0.3733,0.6267	-4054.36
0.3253,0.6747	-4059.84
0.3533,0.6467	-4063.43
0.3617,0.6383	-4057.87
0.3748,0.6252	-4057.52
0.3448,0.6552	-4056.39
0.3808,0.6192	-4067.97
0.3631,0.6369	-4057.30
0.3933,0.6067	-4058.96
0.3920,0.6080	-4061.07
0.3502,0.6498	-4050.67
0.3632,0.6368	-4057.86
0.3913,0.6087	-4063.25
0.3326,0.6674	-4056.35
0.3614,0.6386	-4061.85
0.4212,0.5788	-4065.93
0.3839,0.6161	-4050.35
0.3439,0.6561	-4060.30
0.3833,0.6167	-4056.46
0.3342,0.6658	-4044.53
0.4296,0.5704	-4072.32
0.4112,0.5888	-4068.14
0.3629,0.6371	-4055.61
0.3399,0.6601	-4063.24
0.4017,0.5983	-4067.61
0.3446,0.6554	-4040.97
0.3872,0.6128	-4065.00
0.3680,0.6320	-4063.30
0.3826,0.6174	-4063.59
0.3924,0.6076	-4065.02
0.3689,0.6311	-4061.66
0.3505,0.6495	-4056.23
0.3712,0.6288	-4055.31
0.3338,0.6662	-4049.36
0.3262,0.6738	-4051.04
0.3729,0.6271	-4056.94
0.3746,0.6254	-4061.61
0.3832,0.6168	-4057.88
0.3473,0.6527	-4046.21
0.3660,0.6340	-4066.11
0.3354,0.6646	-4056.18
0.3692,0.6308	-4062.73
0.3694,0.6306	-4065.40
0.3359,0.6641	-4070.47
0.3597,0.6403	-4057.30
0.3449,0.6551	-4053.18
0.3706,0.6294	-4062.70
0.3596,0.6404	-4055.00
0.3853,0.6147	-4066.87
0.3176,0.6824	-4045.48
0.3322,0.6678	-4051.49
0.3643,0.6357	-4062.88
0.3388,0.6612	-4051.31
0.3486,0.6514	-4051.90
0.3589,0.6411	-4056.15
0.3797,0.6203	-4057.71
0.3419,0.6581	-4051.27
0.3814,0.6186	-4061.18
0.3124,0.6876	-4044.16
0.3774,0.6226	-4065.12
0.3566,0.6434	-4066.77
0.3638,0.6362	-4046.12
0.3512,0.6488	-4043.32
0.3778,0.6222	-4068.11
0.3553,0.6447	-4054.97
0.3349,0.6651	-4047.97
0.3530,0.6470	-4056.79
0.3824,0.6176	-4063.59
0.3353,0.6647	-4050.71
0.3574,0.6426	-4056.15
0.3449,0.6551	-4051.90
0.3316,0.6684	-4049.41
0.3550,0.6450	-4047.20
0.3601,0.6399	-4063.63
0.3653,0.6347	-4066.71
0.3278,0.6722	-4057.43
0.3825,0.6175	-4064.07
0.3444,0.6556	-4052.54
0.3479,0.6521	-4058.18
0.3562,0.6438	-4060.30
0.3702,0.6298	-4068.02
0.3565,0.6435	-4052.02
0.3554,0.6446	-4058.54
0.3336,0.6664	-4045.91
0.3672,0.6328	-4064.42
0.3863,0.6137	-4060.83
0.4029,0.5971	-4066.05
0.3806,0.6194	-4067.98
0.3172,0.6828	-4061.59
0.3306,0.6694	-4065.66
0.3512,0.6488	-4056.21
0.3573,0.6427	-4061.43
0.3849,0.6151	-4068.29
0.3798,0.6202	-4057.71
0.3579,0.6421	-4061.41
0.3353,0.6647	-4054.81
0.3280,0.6720	-4058.13
0.3163,0.6837	-4047.08
0.3736,0.6264	-4054.38
0.4087,0.5913	-4064.39
0.3303,0.6697	-4048.74
0.3680,0.6320	-4073.04
0.3235,0.6765	-4044.55
0.4030,0.5970	-4062.91
0.3481,0.6519	-4058.17
0.3880,0.6120	-4065.45
0.3882,0.6118	-4058.17
0.3376,0.6624	-4055.38
0.3356,0.6644	-4052.06
0.3683,0.6317	-4054.66
0.3768,0.6232	-4066.14
0.4088,0.5912	-4062.55
0.3518,0.6482	-4051.93
0.3255,0.6745	-4049.62
0.3517,0.6483	-4064.16
0.3804,0.6196	-4059.69
0.3640,0.6360	-4050.05
0.4128,0.5872	-4063.60
0.3751,0.6249	-4052.94
0.3029,0.6971	-4059.77
0.3577,0.6423	-4061.42
0.4189,0.5811	-4066.74
0.3474,0.6526	-4048.74
0.3641,0.6359	-4064.00
0.3982,0.6018	-4061.82
0.3524,0.6476	-4056.19
0.3846,0.6154	-4066.89
0.3990,0.6010	-4067.60
0.3249,0.6751	-4042.34
0.3688,0.6312	-4063.28
0.3862,0.6138	-4059.44
0.3620,0.6380	-4049.93
0.4019,0.5981	-4067.61
0.3660,0.6340	-4072.16
0.3315,0.6685	-4052.22
0.3560,0.6440	-4062.08
0.3678,0.6322	-4069.27
0.3984,0.6016	-4060.19
0.3585,0.6415	-4054.40
0.3225,0.6775	-4052.74
0.3799,0.6201	-4061.15
0.3402,0.6598	-4056.59
0.3591,0.6409	-4060.78
0.3414,0.6586	-4055.22
0.3883,0.6117	-4062.73
0.3551,0.6449	-4054.97
0.3881,0.6119	-4060.90
0.3981,0.6019	-4059.33
0.3924,0.6076	-4062.84
0.3514,0.6486	-4052.53
0.3277,0.6723	-4051.69
0.3611,0.6389	-4063.58
0.3785,0.6215	-4058.65
0.3946,0.6054	-4053.49
0.3565,0.6435	-4063.83
0.3563,0.6437	-4053.20
0.3480,0.6520	-4051.89
0.3758,0.6242	-4062.12
0.3769,0.6231	-4052.57
0.3876,0.6124	-4061.34
0.3356,0.6644	-4045.24
0.3551,0.6449	-4061.53
0.3351,0.6649	-4067.84
0.4454,0.5546	-4071.24
0.3773,0.6227	-4057.61
0.3625,0.6375	-4051.09
0.3713,0.6287	-4054.78
0.3577,0.6423	-4056.73
0.3313,0.6687	-4048.72
0.4024,0.5976	-4070.39
0.3807,0.6193	-4064.57
0.3602,0.6398	-4062.47
0.2977,0.7023	-4041.80
0.3833,0.6167	-4056.93
0.3464,0.6536	-4062.68
0.4120,0.5880	-4068.15
0.3551,0.6449	-4057.36
0.3875,0.6125	-4060.88
0.3416,0.6584	-4057.83
0.3818,0.6182	-4060.22
0.3627,0.6373	-4056.74
0.4180,0.5820	-4066.69
0.3655,0.6345	-4058.42
0.3384,0.6616	-4058.02
0.3940,0.6060	-4065.90
0.3375,0.6625	-4047.29
0.3227,0.6773	-4060.14
0.3452,0.6548	-4055.10
0.3516,0.6484	-4058.04
0.3169,0.6831	-4057.03
0.4109,0.5891	-4066.33
0.3684,0.6316	-4054.66
0.3699,0.6301	-4056.32
0.3601,0.6399	-4057.88
0.3116,0.6884	-4024.38
0.3297,0.6703	-4057.27
0.3760,0.6240	-4055.53
0.3999,0.6001	-4063.54
0.3742,0.6258	-4059.04
0.3510,0.6490	-4058.68
0.2971,0.7029	-4044.43
0.2999,0.7001	-4060.28
0.3606,0.6394	-4057.30
0.3859,0.6141	-4061.28
0.3651,0.6349	-4057.87
0.3952,0.6048	-4063.36
0.3068,0.6932	-4041.22
0.3034,0.6966	-4050.55
0.3485,0.6515	-4058.15
0.3985,0.6015	-4068.01
0.3995,0.6005	-4073.72
0.3569,0.6431	-4054.38
0.3480,0.6520	-4049.38
0.3315,0.6685	-4064.85
0.3816,0.6184	-4060.70
0.4001,0.5999	-4060.32
0.3851,0.6149	-4057.52
0.3675,0.6325	-4059.52
0.3895,0.6105	-4064.55
0.3374,0.6626	-4056.74
0.4134,0.5866	-4065.74
0.3701,0.6299	-4057.39
0.3565,0.6435	-4058.52
0.3816,0.6184	-4062.14
0.4220,0.5780	-4067.57
0.3344,0.6656	-4053.48
0.3988,0.6012	-4063.09
0.3724,0.6276	-4051.18
0.3509,0.6491	-4059.30
0.3655,0.6345	-4054.56
0.4060,0.5940	-4066.90
0.3532,0.6468	-4055.58
0.3878,0.6122	-4068.19
0.3641,0.6359	-4048.95
0.3382,0.6618	-4046.62
0.3804,0.6196	-4060.67
0.3768,0.6232	-4061.62
0.3913,0.6087	-4061.48
0.3420,0.6580	-4065.01
0.3380,0.6620	-4049.98
0.3221,0.6779	-4056.49
0.3566,0.6434	-4052.61
0.3847,0.6153	-4067.83
0.4039,0.5961	-4062.18
0.3642,0.6358	-4057.31
0.3571,0.6429	-4054.97
0.3635,0.6365	-4060.66
0.3759,0.6241	-4059.59
0.3959,0.6041	-4066.34
0.3608,0.6392	-4054.44
0.3833,0.6167	-4061.21
0.4045,0.5955	-4066.87
0.3305,0.6695	-4057.92
0.3507,0.6493	-4054.99
0.4096,0.5904	-4068.47
0.3734,0.6266	-4059.03
0.4215,0.5785	-4067.22
0.4073,0.5927	-4071.06
0.3386,0.6614	-4048.64
0.3732,0.6268	-4055.39
0.4082,0.5918	-4066.59
0.3692,0.6308	-4065.41
0.4294,0.5706	-4069.19
0.4171,0.5829	-4066.97
0.3144,0.6856	-4047.18
0.3598,0.6402	-4059.61
0.4122,0.5878	-4064.26
0.3499,0.6501	-4059.96
0.3900,0.6100	-4067.24
0.3607,0.6393	-4050.43
0.3236,0.6764	-4052.66
0.3625,0.6375	-4057.87
0.3712,0.6288	-4059.53
0.3664,0.6336	-4060.07
0.3684,0.6316	-4053.59
0.3677,0.6323	-4062.23
0.3384,0.6616	-4061.38
0.3759,0.6241	-4064.66
0.3843,0.6157	-4067.84
0.3505,0.6495	-4059.93
0.3348,0.6652	-4056.90
0.3328,0.6672	-4057.73
0.3723,0.6277	-4050.65
0.3629,0.6371	-4065.18
0.3683,0.6317	-4059.52
0.3432,0.6568	-4045.42
0.3028,0.6972	-4042.28
0.3429,0.6571	-4050.61
0.3321,0.6679	-4057.09
0.3722,0.6278	-4067.37
0.3483,0.6517	-4054.40
0.3605,0.6395	-4053.29
0.3254,0.6746	-4051.09
0.3756,0.6244	-4061.10
0.3218,0.6782	-4049.06
0.3493,0.6507	-4058.74
0.4042,0.5958	-4064.92
0.3768,0.6232	-4059.10
0.3366,0.6634	-4045.93
0.3717,0.6283	-4053.76
0.3584,0.6416	-4053.24
0.3093,0.6907	-4041.91
0.3960,0.6040	-4065.08
0.3923,0.6077	-4068.09
0.3479,0.6521	-4060.06
0.3330,0.6670	-4050.07
0.3401,0.6599	-4051.95
0.3242,0.6758	-4053.35
0.3646,0.6354	-4063.98
0.4002,0.5998	-4066.80
0.3394,0.6606	-4055.30
0.3557,0.6443	-4062.69
0.3416,0.6584	-4059.14
0.3435,0.6565	-4045.43
0.3423,0.6577	-4059.76
0.4088,0.5912	-4071.04
0.3459,0.6541	-4053.17
0.3529,0.6471	-4057.40
0.3763,0.6237	-4053.53
0.3596,0.6404	-4056.73
0.3770,0.6230	-4054.08
0.4124,0.5876	-4064.27
0.3915,0.6085	-4057.52
0.3664,0.6336	-4057.33
0.3589,0.6411	-4054.99
0.3727,0.6273	-4057.98
0.4063,0.5937	-4064.63
0.3276,0.6724	-4053.14
0.3919,0.6081	-4062.38
0.3894,0.6106	-4056.01
0.3298,0.6702	-4059.39
0.3987,0.6013	-4067.60
0.3926,0.6074	-4062.41
0.3356,0.6644	-4053.43
0.3558,0.6442	-4055.56
0.3246,0.6754	-4061.39
0.3513,0.6487	-4059.89
0.3285,0.6715	-4052.37
0.3728,0.6272	-4061.62
0.3720,0.6280	-4065.29
0.3052,0.6948	-4039.66
0.3192,0.6808	-4052.23
0.3798,0.6202	-4063.60
0.3377,0.6623	-4062.78
0.3510,0.6490	-4059.29
0.3324,0.6676	-4050.09
0.3312,0.6688	-4048.72
0.3251,0.6749	-4045.26
0.3777,0.6223	-4061.12
0.3198,0.6802	-4046.15
0.3644,0.6356	-4056.75
0.3593,0.6407	-4059.62
0.3366,0.6634	-4050.68
0.3749,0.6251	-4055.99
0.3482,0.6518	-4058.79
0.3879,0.6121	-4065.91
0.3481,0.6519	-4059.42
0.3563,0.6437	-4062.07
0.3647,0.6353	-4060.64
0.3702,0.6298	-4055.80
0.3638,0.6362	-4056.19
0.3988,0.6012	-4069.24
0.3358,0.6642	-4056.15
0.3547,0.6453	-4061.55
0.3579,0.6421	-4053.81
0.3756,0.6244	-4061.61
0.3539,0.6461	-4055.57
0.3475,0.6525	-4055.67
0.3638,0.6362	-4059.54
0.3060,0.6940	-4056.82
0.3563,0.6437	-4057.93
0.3444,0.6556	-4060.91
0.3512,0.6488	-4059.28
0.3624,0.6376	-4051.65
0.3375,0.6625	-4062.13
0.3286,0.6714	-4055.94
0.3910,0.6090	-4066.34
0.2996,0.7004	-4048.45
0.3904,0.6096	-4061.89
0.3992,0.6008	-4063.11
0.3573,0.6427	-4062.61
0.3783,0.6217	-4056.66
0.3670,0.6330	-4055.70
0.2993,0.7007	-4049.33
0.3716,0.6284	-4052.70
0.3720,0.6280	-4060.58
0.3469,0.6531	-4046.20
0.3437,0.6563	-4053.20
0.3989,0.6011	-4066.37
0.3102,0.6898	-4050.66
0.3651,0.6349	-4061.74
0.3560,0.6440	-4053.78
0.3799,0.6201	-4057.23
0.3498,0.6502	-4059.96
0.4237,0.5763	-4069.21
0.3610,0.6390	-4057.30
0.3444,0.6556	-4051.26
0.3609,0.6391	-4053.30
0.3200,0.6800	-4051.42
0.3525,0.6475	-4059.84
0.4350,0.5650	-4072.68
0.3987,0.6013	-4071.30
0.3617,0.6383	-4059.00
0.3611,0.6389	-4056.16
0.3435,0.6565	-4045.43
0.3770,0.6230	-4070.15
0.4098,0.5902	-4067.38
0.3576,0.6424	-4050.29
0.3823,0.6177	-4058.80
0.3571,0.6429	-4056.74
0.3947,0.6053	-4064.63
0.3648,0.6352	-4056.76
0.4350,0.5650	-4069.02
0.3459,0.6541	-4053.17
0.3275,0.6725	-4056.02
0.3682,0.6318	-4055.19
0.3691,0.6309	-4056.84
0.4160,0.5840	-4067.94
0.4034,0.5966	-4069.58
0.3387,0.6613	-4053.32
0.3613,0.6387	-4063.57
0.4072,0.5928	-4067.31
0.3810,0.6190	-4066.02
0.3913,0.6087	-4055.29
0.3372,0.6628	-4062.83
0.3181,0.6819	-4049.27
0.3401,0.6599	-4050.63
0.3694,0.6306	-4052.03
0.3934,0.6066	-4062.00
0.4212,0.5788	-4072.93
0.3299,0.6701	-4043.79
0.3510,0.6490	-4051.30
0.3574,0.6426	-4062.02
0.3801,0.6199	-4057.24
0.3488,0.6512	-4057.52
0.3988,0.6012	-4066.78
0.3132,0.6868	-4048.04
0.3365,0.6635	-4055.43
0.3387,0.6613	-4049.98
0.4015,0.5985	-4069.21
0.3705,0.6295	-4055.81
0.3748,0.6252	-4053.43
0.3355,0.6645	-4058.90
0.3754,0.6246	-4059.07
0.3584,0.6416	-4054.40
0.4059,0.5941	-4068.42
0.4107,0.5893	-4061.63
0.3684,0.6316	-4057.90
0.3306,0.6694	-4058.61
0.3595,0.6405	-4063.66
0.3484,0.6516	-4048.76
0.3862,0.6138	-4060.83
0.3626,0.6374	-4064.07
0.3291,0.6709	-4053.76
0.3654,0.6346	-4056.77
0.3756,0.6244	-4057.04
0.3555,0.6445	-4056.75
0.3940,0.6060	-4065.47
0.3539,0.6461	-4060.39
0.3547,0.6453	-4051.38
0.3662,0.6338	-4050.74
0.3764,0.6236	-4055.05
0.3587,0.6413	-4053.24
0.3512,0.6488	-4059.28
0.3566,0.6434	-4050.84
0.3348,0.6652	-4045.23
0.3714,0.6286	-4059.00
0.3954,0.6046	-4067.19
0.3752,0.6248	-4059.57
0.3526,0.6474	-4052.54
0.3681,0.6319	-4057.89
0.3728,0.6272	-4060.58
0.3639,0.6361	-4051.17
0.3992,0.6008	-4061.47
0.3703,0.6297	-4048.90
0.3407,0.6593	-4055.90
0.3811,0.6189	-4065.53
0.3605,0.6395	-4068.20
0.3600,0.6400	-4048.10
0.3821,0.6179	-4067.44
0.3953,0.6047	-4063.79
0.3574,0.6426	-4055.56
0.4309,0.5691	-4068.17
0.3521,0.6479	-4062.30
0.3476,0.6524	-4050.63
0.3724,0.6276	-4059.01
0.4012,0.5988	-4067.21
0.3613,0.6387	-4061.86
0.3945,0.6055	-4073.62
0.3502,0.6498	-4058.09
0.3515,0.6485	-4056.82
0.3570,0.6430	-4063.80
0.3453,0.6547	-4051.89
0.3875,0.6125	-4058.13
0.4431,0.5569	-4071.53
0.3323,0.6677	-4050.09
0.3314,0.6686	-4060.65
0.3576,0.6424	-4060.25
0.3405,0.6595	-4056.57
0.4019,0.5981	-4064.83
0.4221,0.5779	-4065.37
0.3341,0.6659	-4060.39
0.3181,0.6819	-4058.42
0.3378,0.6622	-4066.14
0.3773,0.6227	-4059.11
0.3983,0.6017	-4059.77
0.3772,0.6228	-4064.63
0.3239,0.6761	-4050.43
0.3648,0.6352	-4057.31
0.3534,0.6466	-4053.16
0.3297,0.6703	-4050.89
0.4627,0.5373	-4074.55
0.4243,0.5757	-4065.27
0.3478,0.6522	-4050.01
0.3709,0.6291	-4061.64
0.4051,0.5949	-4068.42
0.3579,0.6421	-4052.06
0.4209,0.5791	-4065.91
0.3921,0.6079	-4061.51
0.3292,0.6708	-4052.33
0.4082,0.5918	-4066.59
0.4256,0.5744	-4070.49
0.3509,0.6491	-4051.91
0.3933,0.6067	-4051.59
0.3394,0.6606	-4050.64
0.3254,0.6746	-4054.73
0.3904,0.6096	-4057.43
0.4305,0.5695	-4062.53
0.3176,0.6824	-4047.77
0.3631,0.6369	-4064.05
0.3572,0.6428	-4057.91
0.3507,0.6493	-4058.07
0.3771,0.6229	-4066.13
0.4062,0.5938	-4065.01
0.3174,0.6826	-4050.08
0.3635,0.6365	-4065.15
0.3419,0.6581	-4050.61
0.3483,0.6517	-4052.52
0.3786,0.6214	-4060.64
0.3723,0.6277	-4057.97
0.3353,0.6647	-4058.24
0.3302,0.6698	-4053.69
0.3430,0.6570	-4062.31
0.3456,0.6544	-4062.11
0.3771,0.6229	-4048.06
0.3599,0.6401	-4060.76
0.3858,0.6142	-4062.21
0.3326,0.6674	-4065.40
0.3778,0.6222	-4060.62
0.3580,0.6420	-4051.48
0.4372,0.5628	-4070.96
0.3788,0.6212	-4056.19
0.3693,0.6307	-4062.19
0.3229,0.6771	-4055.67
0.3792,0.6208	-4063.60
0.3664,0.6336	-4058.42
0.4152,0.5848	-4065.51
0.3638,0.6362	-4057.87
0.3748,0.6252	-4064.68
0.3577,0.6423	-4049.12
0.4219,0.5781	-4068.82
0.3761,0.6239	-4069.20
0.4075,0.5925	-4065.07
0.3951,0.6049	-4059.10
0.3744,0.6256	-4055.45
0.3694,0.6306	-4058.45
0.4022,0.5978	-4062.86
0.3738,0.6262	-4056.46
0.3650,0.6350	-4051.78
0.3805,0.6195	-4056.77
0.3381,0.6619	-4054.68
0.3215,0.6785	-4050.57
0.3824,0.6176	-4060.24
0.3361,0.6639	-4056.14
0.4233,0.5767	-4065.48
0.3568,0.6432	-4057.92
0.3447,0.6553	-4049.97
0.3344,0.6656	-4051.42
0.3647,0.6353	-4059.53
0.3427,0.6573	-4040.19
0.3774,0.6226	-4068.12
0.3554,0.6446	-4059.73
0.3275,0.6725	-4053.86
0.3441,0.6559	-4044.16
0.3495,0.6505	-4056.25
0.3742,0.6258	-4063.67
0.3664,0.6336	-4060.62
0.3748,0.6252	-4062.64
0.3756,0.6244	-4064.15
0.3427,0.6573	-4040.84
0.3741,0.6259	-4058.53
0.3841,0.6159	-4054.62
0.3526,0.6474	-4053.76
0.3894,0.6106	-4060.50
0.3540,0.6460	-4059.18
0.3536,0.6464	-4061.61
0.3773,0.6227	-4052.60
0.3695,0.6305	-4064.33
0.3481,0.6519	-4060.05
0.3890,0.6110	-4058.23
0.3442,0.6558	-4057.70
0.3366,0.6634	-4050.00
0.3829,0.6171	-4059.30
0.3613,0.6387	-4066.41
0.3817,0.6183	-4067.45
0.4169,0.5831	-4067.30
0.3474,0.6526	-4050.00
0.3445,0.6555	-4060.91
0.3480,0.6520	-4056.92
0.3804,0.6196	-4064.57
0.3308,0.6692	-4051.55
0.4204,0.5796	-4067.15
0.4243,0.5757	-4073.20
0.2984,0.7016	-4045.16
0.3055,0.6945	-4042.11
0.4133,0.5867	-4065.74
0.3661,0.6339	-4059.52
0.3915,0.6085	-4060.61
0.3577,0.6423	-4054.39
0.3022,0.6978	-4048.17
0.3519,0.6481	-4054.37
0.4103,0.5897	-4068.12
0.4064,0.5936	-4068.81
0.3476,0.6524	-4056.93
0.3506,0.6494	-4049.45
0.3548,0.6452	-4044.80
0.4003,0.5997	-4064.37
0.3371,0.6629	-4055.40
0.3092,0.6908	-4037.09
0.3635,0.6365	-4062.35
0.3283,0.6717	-4046.65
0.3696,0.6304	-4066.99
0.3435,0.6565	-4043.49
0.3395,0.6605	-4041.31
0.3953,0.6047	-4060.81
0.3445,0.6555	-4056.40
0.3785,0.6215	-4067.57
0.4182,0.5818	-4068.35
0.3542,0.6458	-4068.79
0.3552,0.6448	-4063.31
0.4013,0.5987	-4065.21
0.3517,0.6483	-4047.03
0.3881,0.6119	-4070.46
0.3837,0.6163	-4061.70
0.3351,0.6649	-4066.47
0.3773,0.6227	-4062.62
0.3587,0.6413	-4058.47
0.3329,0.6671	-4051.47
0.3653,0.6347	-4053.45
0.3645,0.6355	-4058.98
0.3832,0.6168	-4061.21
0.3531,0.6469	-4055.58
0.3454,0.6546	-4058.93
0.3362,0.6638	-4051.37
0.3112,0.6888	-4052.95
0.3552,0.6448	-4047.81
0.3549,0.6451	-4062.73
0.3735,0.6265	-4058.51
0.3728,0.6272	-4055.90
0.3588,0.6412	-4054.99
0.3102,0.6898	-4054.66
0.3702,0.6298	-4061.11
0.3375,0.6625	-4039.87
0.3773,0.6227	-4056.61
0.3734,0.6266	-4063.17
0.3296,0.6704	-4043.08
0.3420,0.6580	-4051.27
0.3426,0.6574	-4055.83
0.3920,0.6080	-4065.46
0.3965,0.6035	-4062.99
0.3563,0.6437	-4054.38
0.3505,0.6495	-4056.84
0.3251,0.6749	-4054.03
0.3429,0.6571	-4050.61
0.4126,0.5874	-4065.34
0.3791,0.6209	-4062.12
0.3554,0.6446	-4063.30
0.3319,0.6681	-4059.20
0.3684,0.6316	-4061.67
0.3767,0.6233	-4062.62
0.3723,0.6277	-4062.67
0.3608,0.6392	-4055.01
0.3292,0.6708	-4057.31
0.3191,0.6809	-4052.24
0.3712,0.6288	-4061.63
0.3604,0.6396	-4056.73
0.3667,0.6333	-4059.52
0.3681,0.6319	-4059.52
0.3391,0.6609	-4053.98
0.3227,0.6773	-4055.69
0.3851,0.6149	-4058.92
0.3446,0.6554	-4057.68
0.3729,0.6271	-4068.38
0.3788,0.6212	-4055.20
0.3298,0.6702	-4052.30
0.3426,0.6574	-4050.61
0.4153,0.5847	-4069.96
0.3677,0.6323	-4053.55
0.3446,0.6554	-4051.26
0.3688,0.6312	-4048.23
0.3848,0.6152	-4054.22
0.3601,0.6399	-4058.45
0.3753,0.6247	-4065.69
0.3717,0.6283	-4062.68
0.3608,0.6392	-4055.01
0.3891,0.6109	-4066.80
0.4112,0.5888	-4068.49
0.3686,0.6314	-4054.13
0.3729,0.6271	-4058.50
0.3535,0.6465	-4056.18
0.3576,0.6424	-4053.22
0.3716,0.6284	-4056.38
0.3790,0.6210	-4051.76
0.4085,0.5915	-4065.86
0.3744,0.6256	-4066.23
0.3425,0.6575	-4059.09
0.3609,0.6391	-4056.16
0.3866,0.6134	-4057.15
0.3850,0.6150	-4064.07
0.3917,0.6083	-4067.66
0.3563,0.6437	-4063.25
0.3614,0.6386	-4062.43
0.3746,0.6254	-4057.00
0.4053,0.5947	-4063.82
0.3529,0.6471	-4062.25
0.3841,0.6159	-4061.71
0.3785,0.6215	-4059.64
0.3987,0.6013	-4069.66
0.4115,0.5885	-4058.13
0.3816,0.6184	-4064.08
0.3132,0.6868	-4064.53
0.3674,0.6326	-4061.69
0.3702,0.6298	-4055.80
0.4328,0.5672	-4071.56
0.4215,0.5785	-4063.74
0.3637,0.6363	-4059.54
0.3499,0.6501	-4058.72
0.3916,0.6084	-4061.05
0.3754,0.6246	-4059.58
0.4158,0.5842	-4062.83
0.3741,0.6259	-4063.16
0.3601,0.6399	-4052.13
0.3570,0.6430	-4065.56
0.3666,0.6334	-4064.99
0.3206,0.6794	-4064.14
0.3845,0.6155	-4060.78
0.3706,0.6294	-4064.82
0.3785,0.6215	-4059.14
0.3927,0.6073	-4062.41
0.3427,0.6573	-4052.57
0.3273,0.6727	-4048.83
0.3944,0.6056	-4062.48
0.3471,0.6529	-4059.47
0.3429,0.6571	-4052.56
0.3688,0.6312	-4058.44
0.3723,0.6277	-4065.80
0.3476,0.6524	-4059.45
0.4147,0.5853	-4069.27
0.3641,0.6359	-4065.12
0.3721,0.6279	-4063.72
0.3467,0.6533	-4045.55
0.3537,0.6463	-4051.35
0.3279,0.6721	-4048.09
0.3831,0.6169	-4053.11
0.3882,0.6118	-4063.18
0.3048,0.6952	-4044.62
0.3275,0.6725	-4051.70
0.3629,0.6371	-4052.24
0.2867,0.7133	-4027.41
0.4133,0.5867	-4062.24
0.3918,0.6082	-4063.70
0.2963,0.7037	-4050.56
0.3738,0.6262	-4053.36
0.3443,0.6557	-4066.07
0.3018,0.6982	-4038.99
0.4073,0.5927	-4062.81
0.4335,0.5665	-4067.30
0.3365,0.6635	-4052.72
0.3859,0.6141	-4057.57
0.3748,0.6252	-4055.98
0.3524,0.6476	-4062.28
0.4237,0.5763	-4063.67
0.4306,0.5694	-4067.58
0.3014,0.6986	-4048.26
0.4274,0.5726	-4070.54
0.3703,0.6297	-4068.02
0.3290,0.6710	-4053.05
0.3865,0.6135	-4064.54
0.3752,0.6248	-4062.12
0.3525,0.6475	-4057.41
0.4023,0.5977	-4058.12
0.3154,0.6846	-4041.70
0.3227,0.6773	-4043.08
0.3872,0.6128	-4072.80
0.3703,0.6297	-4049.43
0.3561,0.6439	-4053.78
0.3785,0.6215	-4066.09
0.3461,0.6539	-4058.25
0.3379,0.6621	-4055.36
0.3801,0.6199	-4058.22
0.3773,0.6227	-4066.13
0.3697,0.6303	-4054.72
0.3694,0.6306	-4060.05
0.3418,0.6582	-4064.38
0.3526,0.6474	-4053.15
0.3519,0.6481	-4052.54
0.3883,0.6117	-4061.82
0.3502,0.6498	-4053.14
0.3492,0.6508	-4059.99
0.3581,0.6419	-4059.65
0.4090,0.5910	-4068.46
0.3241,0.6759	-4045.28
0.4135,0.5865	-4065.05
0.3573,0.6427	-4059.09
0.3874,0.6126	-4068.66
0.3440,0.6560	-4052.55
0.3904,0.6096	-4061.89
0.3526,0.6474	-4054.37
0.3599,0.6401	-4063.06
0.3878,0.6122	-4065.91
0.3709,0.6291	-4058.99
0.3626,0.6374	-4065.76
0.3955,0.6045	-4065.07
0.3752,0.6248	-4064.16
0.3554,0.6446	-4063.31
0.3798,0.6202	-4061.15
0.3379,0.6621	-4052.00
0.3351,0.6649	-4048.66
0.3393,0.6607	-4051.30
0.4252,0.5748	-4065.96
0.3725,0.6275	-4068.40
0.4050,0.5950	-4061.11
0.4040,0.5960	-4066.86
0.3339,0.6661	-4047.29
0.3568,0.6432	-4062.05
0.4166,0.5834	-4064.59
0.4350,0.5650	-4069.02
0.3991,0.6009	-4060.24
0.3477,0.6523	-4055.04
0.3552,0.6448	-4056.76
0.3713,0.6287	-4066.90
0.4094,0.5906	-4066.63
0.4303,0.5697	-4072.33
0.3408,0.6592	-4061.18
0.3194,0.6806	-4048.44
0.3701,0.6299	-4058.99
0.3621,0.6379	-4051.07
0.3725,0.6275	-4061.10
0.3868,0.6132	-4064.08
0.3617,0.6383	-4054.46
0.3439,0.6561	-4050.61
0.3350,0.6650	-4047.97
0.3663,0.6337	-4065.00
0.3693,0.6307	-4053.63
0.4277,0.5723	-4066.19
0.3505,0.6495	-4063.63
0.3816,0.6184	-4059.25
0.3400,0.6600	-4055.27
0.3638,0.6362	-4055.63
0.4224,0.5776	-4070.41
0.3761,0.6239	-4066.68
0.3289,0.6711	-4055.91
0.3810,0.6190	-4064.56
0.3334,0.6666	-4060.46
0.3416,0.6584	-4059.81
0.3710,0.6290	-4064.28
0.3748,0.6252	-4058.03
0.2884,0.7116	-4045.41
0.4137,0.5863	-4062.97
0.3449,0.6551	-4061.52
0.3563,0.6437	-4063.25
0.3434,0.6566	-4055.79
0.3854,0.6146	-4066.87
0.3309,0.6691	-4040.98
0.4038,0.5962	-4061.79
0.3309,0.6691	-4059.28
0.3362,0.6638	-4056.81
0.3476,0.6524	-4050.63
0.3572,0.6428	-4057.91
0.3713,0.6287	-4057.42
0.3904,0.6096	-4060.10
0.3410,0.6590	-4048.64
0.3662,0.6338	-4055.68
0.3764,0.6236	-4055.05
0.3803,0.6197	-4062.13
0.3278,0.6722	-4057.43
0.4106,0.5894	-4068.85
0.3516,0.6484	-4054.98
0.3255,0.6745	-4045.98
0.3899,0.6101	-4059.18
0.3247,0.6753	-4045.26
0.3486,0.6514	-4057.52
0.4046,0.5954	-4066.10
0.3865,0.6135	-4064.54
0.3367,0.6633	-4055.42
0.3487,0.6513	-4049.40
0.3499,0.6501	-4059.96
0.3668,0.6332	-4061.70
0.4138,0.5862	-4066.12
0.3423,0.6577	-4049.31
0.3638,0.6362	-4058.98
0.3432,0.6568	-4062.29
0.3396,0.6604	-4052.63
0.3584,0.6416	-4057.89
0.3892,0.6108	-4069.06
0.3710,0.6290	-4056.88
0.3539,0.6461	-4056.77
0.3863,0.6137	-4066.39
0.3883,0.6117	-4065.00
0.3413,0.6587	-4048.65
0.3815,0.6185	-4065.04
0.3700,0.6300	-4063.78
0.3684,0.6316	-4062.75
0.3594,0.6406	-4056.15
0.3931,0.6069	-4062.43
0.3284,0.6716	-4056.67
0.3710,0.6290	-4052.66
0.3742,0.6258	-4056.47
0.3489,0.6511	-4064.38
0.3374,0.6626	-4050.66
0.3863,0.6137	-4061.30
0.3545,0.6455	-4059.76
0.3626,0.6374	-4059.56
0.3830,0.6170	-4056.44
0.3487,0.6513	-4052.52
0.3562,0.6438	-4047.87
0.3591,0.6409	-4055.57
0.3595,0.6405	-4059.04
0.3333,0.6667	-4063.24
0.4055,0.5945	-4068.04
0.3794,0.6206	-4064.09
0.3138,0.6862	-4050.35
0.3625,0.6375	-4058.43
0.3988,0.6012	-4063.09
0.3322,0.6678	-4054.29
0.3951,0.6049	-4062.51
0.3717,0.6283	-4057.96
0.3409,0.6591	-4046.01
0.3823,0.6177	-4062.63
0.3704,0.6296	-4056.34
0.3241,0.6759	-4051.89
0.3826,0.6174	-4056.41
0.3314,0.6686	-4046.61
0.3749,0.6251	-4061.61
0.3578,0.6422	-4059.66
0.3797,0.6203	-4062.62
0.3279,0.6721	-4058.86
0.3534,0.6466	-4053.16
0.3575,0.6425	-4056.74
0.3299,0.6701	-4053.00
0.3753,0.6247	-4054.48
0.4216,0.5784	-4075.13
0.3353,0.6647	-4056.18
0.3840,0.6160	-4061.71
0.3224,0.6776	-4055.72
0.3026,0.6974	-4041.45
0.3685,0.6315	-4064.90
0.4144,0.5856	-4066.84
0.3205,0.6795	-4046.88
0.4138,0.5862	-4064.37
0.3276,0.6724	-4052.42
0.2982,0.7018	-4046.89
0.4075,0.5925	-4068.06
0.3905,0.6095	-4068.12
0.3650,0.6350	-4056.76
0.3557,0.6443	-4058.53
0.3780,0.6220	-4059.63
0.3247,0.6753	-4045.27
0.3769,0.6231	-4068.15
0.3928,0.6072	-4065.46
0.3652,0.6348	-4065.06
0.3311,0.6689	-4049.43
0.3423,0.6577	-4065.63
0.3702,0.6298	-4064.30
0.4064,0.5936	-4065.02
0.3873,0.6127	-4070.96
0.3679,0.6321	-4071.97
0.3474,0.6526	-4046.85
0.3542,0.6458	-4056.77
0.3788,0.6212	-4061.13
0.4140,0.5860	-4073.07
0.4212,0.5788	-4062.43
0.3700,0.6300	-4053.67
0.3644,0.6356	-4053.97
0.3366,0.6634	-4051.36
0.4119,0.5881	-4065.30
0.3747,0.6253	-4062.13
0.3721,0.6279	-4062.67
0.3579,0.6421	-4053.23
0.3316,0.6684	-4059.92
0.3819,0.6181	-4064.56
0.4142,0.5858	-4065.10
0.3775,0.6225	-4063.12
0.3683,0.6317	-4061.67
0.3761,0.6239	-4059.08
0.3337,0.6663	-4046.60
0.3924,0.6076	-4063.28
0.3187,0.6813	-4047.72
0.3611,0.6389	-4053.88
0.3384,0.6616	-4054.00
0.3931,0.6069	-4061.12
0.3314,0.6686	-4048.72
0.3262,0.6738	-4051.04
0.3869,0.6131	-4062.70
0.3429,0.6571	-4048.01
0.3347,0.6653	-4058.28
0.3809,0.6191	-4060.68
0.3724,0.6276	-4064.23
0.3341,0.6659	-4053.50
0.3848,0.6152	-4059.38
0.3936,0.6064	-4061.15
0.3191,0.6809	-4060.58
0.3315,0.6685	-4050.12
0.3502,0.6498	-4065.51
0.3426,0.6574	-4055.17
0.3925,0.6075	-4069.39
0.4018,0.5982	-4068.41
0.3553,0.6447	-4057.95
0.3546,0.6454	-4056.17
0.3429,0.6571	-4055.81
0.3803,0.6197	-4062.62
0.3885,0.6115	-4065.45
0.3707,0.6293	-4052.64
0.3280,0.6720	-4060.28
0.3824,0.6176	-4068.39
0.3563,0.6437	-4058.52
0.3544,0.6456	-4048.97
0.4088,0.5912	-4064.03
0.3691,0.6309	-4060.59
0.3261,0.6739	-4058.31
0.3627,0.6373	-4056.74
0.3568,0.6432	-4050.85
0.3668,0.6332	-4055.15
0.3702,0.6298	-4058.46
0.3885,0.6115	-4061.82
0.2782,0.7218	-4055.52
0.3597,0.6403	-4066.53
0.3562,0.6438	-4056.75
0.3364,0.6636	-4059.51
0.3636,0.6364	-4055.63
0.3753,0.6247	-4050.91
0.2865,0.7135	-4042.02
0.3481,0.6519	-4056.91
0.3778,0.6222	-4054.14
0.3622,0.6378	-4065.79
0.3909,0.6091	-4064.12
0.3391,0.6609	-4048.64
0.3380,0.6620	-4053.34
0.3844,0.6156	-4058.42
0.3861,0.6139	-4058.51
0.3396,0.6604	-4063.94
0.3640,0.6360	-4061.77
0.3365,0.6635	-4049.32
0.3551,0.6449	-4059.14
0.3583,0.6417	-4066.64
0.3586,0.6414	-4054.99
0.3655,0.6345	-4055.11
0.3643,0.6357	-4058.42
0.3836,0.6164	-4063.59
0.3687,0.6313	-4062.20
0.3367,0.6633	-4050.00
0.3809,0.6191	-4058.74
0.3592,0.6408	-4051.52
0.3977,0.6023	-4063.87
0.3610,0.6390	-4064.15
0.3399,0.6601	-4054.61
0.3777,0.6223	-4061.12
0.3532,0.6468	-4056.79
0.3345,0.6655	-4056.92
0.3435,0.6565	-4048.67
0.3632,0.6368	-4051.69
0.3191,0.6809	-4053.75
0.3546,0.6454	-4053.17
0.3673,0.6327	-4058.43
0.3698,0.6302	-4058.45
0.3600,0.6400	-4061.33
0.3676,0.6324	-4061.14
0.3334,0.6666	-4049.37
0.3544,0.6456	-4053.77
0.3514,0.6486	-4048.24
0.3904,0.6096	-4059.21
0.3789,0.6211	-4054.71
0.3595,0.6405	-4063.08
0.3560,0.6440	-4059.71
0.3869,0.6131	-4051.19
0.3292,0.6708	-4050.19
0.3857,0.6143	-4071.05
0.3666,0.6334	-4047.49
0.3506,0.6494	-4051.91
0.4110,0.5890	-4067.77
0.4021,0.5979	-4060.87
0.3824,0.6176	-4065.51
0.3505,0.6495	-4055.61
0.3958,0.6042	-4065.50
0.3403,0.6597	-4055.92
0.3944,0.6056	-4068.05
0.3674,0.6326	-4058.43
0.3523,0.6477	-4064.11
0.3532,0.6468	-4051.95
0.3594,0.6406	-4061.93
0.3241,0.6759	-4059.24
0.3797,0.6203	-4062.13
0.3298,0.6702	-4053.72
0.3920,0.6080	-4061.51
0.3562,0.6438	-4057.34
0.3641,0.6359	-4050.06
0.3054,0.6946	-4055.27
0.3952,0.6048	-4066.76
0.3250,0.6750	-4048.18
0.3912,0.6088	-4061.03
0.3988,0.6012	-4066.37
0.3529,0.6471	-4063.46
0.3397,0.6603	-4057.28
0.3882,0.6118	-4060.90
0.3646,0.6354	-4055.64
0.3963,0.6037	-4067.61
0.3981,0.6019	-4063.47
0.3582,0.6418	-4059.65
0.3605,0.6395	-4056.73
0.3616,0.6384	-4058.44
0.3848,0.6152	-4053.75
0.3607,0.6393	-4060.16
0.4103,0.5897	-4057.23
0.3358,0.6642	-4052.06
0.3479,0.6521	-4044.35
0.3621,0.6379	-4063.53
0.3841,0.6159	-4056.51
0.3330,0.6670	-4055.63
0.3800,0.6200	-4055.27
0.3728,0.6272	-4056.94
0.3066,0.6934	-4059.18
0.3855,0.6145	-4052.42
0.3682,0.6318	-4052.50
0.3414,0.6586	-4053.24
0.3837,0.6163	-4054.59
0.3622,0.6378	-4056.17
0.2941,0.7059	-4049.12
0.3873,0.6127	-4058.12
0.3725,0.6275	-4057.97
0.3528,0.6472	-4056.79
0.3895,0.6105	-4063.20
0.3567,0.6433	-4049.08
0.3344,0.6656	-4047.98
0.3370,0.6630	-4050.67
0.3157,0.6843	-4042.47
0.3617,0.6383	-4050.49
0.4340,0.5660	-4071.07
0.3827,0.6173	-4061.68
0.3317,0.6683	-4048.71
0.3659,0.6341	-4055.67
0.3400,0.6600	-4052.62
0.3446,0.6554	-4059.62
0.3936,0.6064	-4060.72
0.3790,0.6210	-4061.63
0.3459,0.6541	-4053.80
0.3582,0.6418	-4051.48
0.3512,0.6488	-4064.81
0.3810,0.6190	-4063.59
0.3603,0.6397	-4056.73
0.3559,0.6441	-4066.83
0.3399,0.6601	-4066.56
0.3440,0.6560	-4057.07
0.3645,0.6355	-4046.75
0.4108,0.5892	-4068.85
0.3770,0.6230	-4061.11
0.3271,0.6729	-4048.11
0.3844,0.6156	-4058.42
0.3592,0.6408	-4061.36
0.3711,0.6289	-4063.75
0.3835,0.6165	-4060.27
0.3752,0.6248	-4057.02
0.3668,0.6332	-4055.15
0.3990,0.6010	-4061.87
0.3702,0.6298	-4059.52
0.3514,0.6486	-4055.60
0.3838,0.6162	-4063.12
0.3786,0.6214	-4066.09
0.3661,0.6339	-4063.37
0.3691,0.6309	-4060.59
0.3694,0.6306	-4061.66
0.3730,0.6270	-4066.30
0.3723,0.6277	-4064.24
0.3717,0.6283	-4063.73
0.3324,0.6676	-4045.91
0.3477,0.6523	-4063.85
0.3707,0.6293	-4058.99
0.3597,0.6403	-4058.46
0.3789,0.6211	-4067.07
0.3426,0.6574	-4054.52
0.3597,0.6403	-4056.15
0.3555,0.6445	-4059.73
0.3322,0.6678	-4052.19
0.4063,0.5937	-4060.84
0.4008,0.5992	-4066.40
0.3593,0.6407	-4054.41
0.3903,0.6097	-4064.11
0.3204,0.6796	-4046.13
0.3419,0.6581	-4055.20
0.3717,0.6283	-4059.00
0.3185,0.6815	-4056.09
0.3235,0.6765	-4050.45
0.3615,0.6385	-4062.42
0.3403,0.6597	-4055.26
0.3563,0.6437	-4060.89
0.3923,0.6077	-4060.65
0.3275,0.6725	-4045.22
0.3300,0.6700	-4043.08
0.3623,0.6377	-4056.17
0.3551,0.6449	-4061.53
0.3184,0.6816	-4051.53
0.3665,0.6335	-4055.69
0.3346,0.6654	-4049.35
0.3333,0.6667	-4052.15
0.3618,0.6382	-4058.44
0.3751,0.6249	-4065.19
0.3112,0.6888	-4052.95
0.3840,0.6160	-4061.23
0.3527,0.6473	-4056.19
0.3508,0.6492	-4059.91
0.3586,0.6414	-4053.24
0.3874,0.6126	-4066.37
0.3473,0.6527	-4053.78
0.3896,0.6104	-4064.10
0.3168,0.6832	-4053.19
0.3236,0.6764	-4051.18
0.3273,0.6727	-4058.92
0.4164,0.5836	-4069.97
0.3305,0.6695	-4050.86
0.3911,0.6089	-4060.14
0.3318,0.6682	-4050.81
0.3522,0.6478	-4056.20
0.3472,0.6528	-4045.58
0.3918,0.6082	-4066.34
0.3102,0.6898	-4050.66
0.3946,0.6054	-4066.34
0.3055,0.6945	-4051.96
0.3664,0.6336	-4054.04
0.3711,0.6289	-4055.83
0.4027,0.5973	-4062.89
0.3269,0.6731	-4053.17
0.3671,0.6329	-4064.42
0.3809,0.6191	-4062.14
0.3357,0.6643	-4052.06
0.3708,0.6292	-4058.47
0.4115,0.5885	-4064.57
0.3580,0.6420	-4061.41
0.3348,0.6652	-4041.11
0.3784,0.6216	-4068.08
0.3352,0.6648	-4048.66
0.3804,0.6196	-4063.60
0.4144,0.5856	-4066.49
0.3466,0.6534	-4049.99
0.3280,0.6720	-4043.07
0.3726,0.6274	-4059.54
0.3405,0.6595	-4054.59
0.3656,0.6344	-4063.38
0.3721,0.6279	-4062.67
0.3240,0.6760	-4042.34
0.3612,0.6388	-4064.71
0.3721,0.6279	-4060.06
0.3518,0.6482	-4054.98
0.3448,0.6552	-4044.83
0.3721,0.6279	-4053.25
0.3754,0.6246	-4059.07
0.3314,0.6686	-4052.22
0.4145,0.5855	-4066.50
0.3697,0.6303	-4057.38
0.3271,0.6729	-4053.89
0.3259,0.6741	-4050.33
0.3592,0.6408	-4056.73
0.3129,0.6871	-4049.64
0.3722,0.6278	-4063.19
0.3828,0.6172	-4060.25
0.3422,0.6578	-4055.84
0.3150,0.6850	-4053.36
0.3459,0.6541	-4065.27
0.3438,0.6562	-4048.67
0.3533,0.6467	-4059.81
0.3740,0.6260	-4062.65
0.3319,0.6681	-4050.81
0.3597,0.6403	-4055.00
0.3731,0.6269	-4052.80
0.3762,0.6238	-4062.63
0.3577,0.6423	-4063.76
0.3463,0.6537	-4051.89
0.3375,0.6625	-4045.94
0.3990,0.6010	-4065.14
0.3848,0.6152	-4056.09
0.3946,0.6054	-4065.91
0.3579,0.6421	-4057.32
0.3541,0.6459	-4061.58
0.3049,0.6951	-4050.39
0.3960,0.6040	-4062.97
0.3842,0.6158	-4058.88
0.3614,0.6386	-4052.75
0.3245,0.6755	-4055.54
0.3309,0.6691	-4041.69
0.3293,0.6707	-4054.46
0.3718,0.6282	-4059.53
0.3693,0.6307	-4058.98
0.3502,0.6498	-4050.67
0.3427,0.6573	-4056.47
0.3365,0.6635	-4060.18
0.3920,0.6080	-4059.32
0.3618,0.6382	-4052.76
0.3929,0.6071	-4061.11
0.3474,0.6526	-4056.31
0.3742,0.6258	-4058.53
0.3564,0.6436	-4062.06
0.3887,0.6113	-4070.43
0.3727,0.6273	-4063.18
0.3447,0.6553	-4058.97
0.3608,0.6392	-4057.30
0.3917,0.6083	-4054.45
0.3595,0.6405	-4059.61
0.3746,0.6254	-4058.03
0.3788,0.6212	-4062.62
0.3515,0.6485	-4051.31
0.3491,0.6509	-4048.78
0.3984,0.6016	-4064.72
0.3734,0.6266	-4053.85
0.3502,0.6498	-4053.76
0.3657,0.6343	-4054.02
0.3527,0.6473	-4053.76
0.3432,0.6568	-4055.80
0.4045,0.5955	-4065.32
0.3342,0.6658	-4059.70
0.3407,0.6593	-4054.58
0.3929,0.6071	-4067.64
0.3589,0.6411	-4071.81
0.3299,0.6701	-4057.96
0.3479,0.6521	-4056.29
0.3293,0.6707	-4061.57
0.3439,0.6561	-4062.24
0.3910,0.6090	-4063.68
0.3919,0.6081	-4062.38
0.2978,0.7022	-4042.65
0.3809,0.6191	-4054.85
0.3775,0.6225	-4055.62
0.3502,0.6498	-4050.67
0.3695,0.6305	-4054.71
0.3973,0.6027	-4071.77
0.3887,0.6113	-4063.19
0.3729,0.6271	-4054.34
0.3807,0.6193	-4056.30
0.4245,0.5755	-4066.50
0.3798,0.6202	-4062.13
0.3859,0.6141	-4060.36
0.3798,0.6202	-4066.05
0.3779,0.6221	-4062.62
0.3860,0.6140	-4059.43
0.3704,0.6296	-4063.24
0.3871,0.6129	-4072.35
0.3759,0.6241	-4053.50
0.3907,0.6093	-4063.68
0.2940,0.7060	-4053.51
0.3277,0.6723	-4051.69
0.3798,0.6202	-4051.83
0.3906,0.6094	-4070.79
0.4000,0.6000	-4067.20
0.4023,0.5977	-4062.08
0.3238,0.6762	-4046.02
0.3741,0.6259	-4059.04
0.3653,0.6347	-4057.87
0.3746,0.6254	-4061.61
0.3969,0.6031	-4060.49
0.3687,0.6313	-4058.98
0.3819,0.6181	-4061.67
0.3156,0.6844	-4054.86
0.3626,0.6374	-4062.38
0.4037,0.5963	-4057.10
0.3871,0.6129	-4058.57
0.3114,0.6886	-4053.73
0.4060,0.5940	-4067.66
0.3299,0.6701	-4051.58
0.3864,0.6136	-4058.06
0.3797,0.6203	-4061.15
0.3780,0.6220	-4059.13
0.3270,0.6730	-4043.06
0.3484,0.6516	-4061.91
0.3227,0.6773	-4051.24
0.3872,0.6128	-4064.54
0.3617,0.6383	-4061.85
0.3830,0.6170	-4059.30
0.3686,0.6314	-4063.82
0.3796,0.6204	-4059.18
0.3303,0.6697	-4066.41
0.3786,0.6214	-4060.14
0.3766,0.6234	-4058.09
0.4171,0.5829	-4068.65
0.3748,0.6252	-4056.50
0.3850,0.6150	-4061.26
0.3671,0.6329	-4061.70
0.4161,0.5839	-4066.24
0.3937,0.6063	-4062.45
0.4065,0.5935	-4064.27
0.3980,0.6020	-4063.47
0.3569,0.6431	-4052.62
0.3883,0.6117	-4059.09
0.4135,0.5865	-4066.10
0.3914,0.6086	-4065.90
0.4102,0.5898	-4066.30
0.3756,0.6244	-4062.63
0.3437,0.6563	-4051.90
0.3784,0.6216	-4056.17
0.3627,0.6373	-4058.99
0.4096,0.5904	-4065.91
0.3907,0.6093	-4057.01
0.3923,0.6077	-4065.90
0.3369,0.6631	-4050.00
0.3665,0.6335	-4055.14
0.3884,0.6116	-4061.82
0.3379,0.6621	-4057.39
0.3429,0.6571	-4048.01
0.3756,0.6244	-4057.55
0.4052,0.5948	-4064.96
0.3651,0.6349	-4055.10
0.3561,0.6439	-4059.12
0.3795,0.6205	-4057.21
0.3499,0.6501	-4049.43
0.3640,0.6360	-4053.96
0.3465,0.6535	-4055.70
0.3455,0.6545	-4055.73
0.3744,0.6256	-4058.02
0.3719,0.6281	-4059.01
0.3244,0.6756	-4047.47
0.3409,0.6591	-4048.64
0.3257,0.6743	-4045.25
0.3393,0.6607	-4051.97
0.3353,0.6647	-4050.71
0.3843,0.6157	-4060.30
0.3150,0.6850	-4040.93
0.3651,0.6349	-4060.64
0.3565,0.6435	-4060.29
0.3688,0.6312	-4061.13
0.3588,0.6412	-4055.57
0.3418,0.6582	-4044.72
0.3244,0.6756	-4057.75
0.3042,0.6958	-4055.42
0.3555,0.6445	-4049.62
0.3870,0.6130	-4062.24
0.3691,0.6309	-4066.48
0.3870,0.6130	-4060.86
0.3489,0.6511	-4053.15
0.3690,0.6310	-4066.49
0.3903,0.6097	-4069.91
0.4205,0.5795	-4070.37
0.3418,0.6582	-4058.48
0.3559,0.6441	-4051.41
0.3492,0.6508	-4051.28
0.3733,0.6267	-4063.17
0.3558,0.6442	-4051.41
0.3805,0.6195	-4058.23
0.3593,0.6407	-4054.42
0.4052,0.5948	-4067.65
0.3260,0.6740	-4054.68
0.3398,0.6602	-4055.94
0.3364,0.6636	-4050.68
0.3930,0.6070	-4063.73
0.3768,0.6232	-4057.59
0.3909,0.6091	-4062.79
0.3394,0.6606	-4057.96
0.3235,0.6765	-4047.50
0.4075,0.5925	-4064.70
0.3525,0.6475	-4059.23
0.3830,0.6170	-4059.78
0.3542,0.6458	-4053.77
0.3698,0.6302	-4059.52
0.3162,0.6838	-4048.63
0.3654,0.6346	-4053.45
0.3681,0.6319	-4057.35
0.4128,0.5872	-4069.94
0.3734,0.6266	-4058.51
0.3544,0.6456	-4050.77
0.3690,0.6310	-4057.91
0.3434,0.6566	-4057.09
0.3403,0.6597	-4053.93
0.3995,0.6005	-4068.42
0.3505,0.6495	-4053.76
0.3807,0.6193	-4052.41
0.4062,0.5938	-4070.70
0.3339,0.6661	-4045.91
0.3707,0.6293	-4061.11
0.3704,0.6296	-4057.40
0.3204,0.6796	-4051.39
0.3486,0.6514	-4053.15
0.3795,0.6205	-4058.69
0.3263,0.6737	-4058.29
0.3376,0.6624	-4050.66
0.4140,0.5860	-4066.82
0.3556,0.6444	-4052.00
0.4067,0.5933	-4061.63
0.4031,0.5969	-4059.78
0.3281,0.6719	-4051.67
0.3812,0.6188	-4065.05
0.4009,0.5991	-4064.80
0.3706,0.6294	-4061.64
0.3716,0.6284	-4070.56
0.4129,0.5871	-4068.53
0.3471,0.6529	-4054.42
0.3745,0.6255	-4059.56
0.3739,0.6261	-4056.98
0.3195,0.6805	-4058.26
0.3565,0.6435	-4059.11
0.4143,0.5857	-4073.07
0.3483,0.6517	-4064.43
0.3980,0.6020	-4062.64
0.3323,0.6677	-4050.79
0.3380,0.6620	-4037.21
0.3550,0.6450	-4052.58
0.3994,0.6006	-4066.38
0.3744,0.6256	-4049.81
0.4261,0.5739	-4065.74
0.3128,0.6872	-4049.65
0.3588,0.6412	-4050.92
0.3906,0.6094	-4061.01
0.3567,0.6433	-4052.61
0.3763,0.6237	-4057.57
0.3878,0.6122	-4062.72
0.3302,0.6698	-4060.77
0.3982,0.6018	-4061.00
0.3881,0.6119	-4065.91
0.3420,0.6580	-4053.89
0.3755,0.6245	-4066.70
0.3909,0.6091	-4056.14
0.3133,0.6867	-4052.75
0.3380,0.6620	-4056.03
0.3616,0.6384	-4062.42
0.3461,0.6539	-4042.35
0.3778,0.6222	-4063.12
0.3807,0.6193	-4059.22
0.3448,0.6552	-4058.96
0.3635,0.6365	-4066.83
0.3405,0.6595	-4063.85
0.3262,0.6738	-4067.73
0.3352,0.6648	-4054.14
0.3830,0.6170	-4059.78
0.3746,0.6254	-4065.71
0.3821,0.6179	-4067.44
0.3525,0.6475	-4054.37
0.2934,0.7066	-4051.85
0.3532,0.6468	-4062.23
0.3910,0.6090	-4063.24
0.3638,0.6362	-4059.54
0.3667,0.6333	-4058.43
0.3353,0.6647	-4059.60
0.2979,0.7021	-4037.50
0.3567,0.6433	-4058.51
0.4136,0.5864	-4067.85
0.3810,0.6190	-4052.92
0.3667,0.6333	-4061.16
0.3510,0.6490	-4054.37
0.3194,0.6806	-4053.73
0.3365,0.6635	-4056.11
0.3742,0.6258	-4066.24
0.3659,0.6341	-4060.07
0.3717,0.6283	-4062.15
0.3564,0.6436	-4060.29
0.3499,0.6501	-4055.00
0.3549,0.6451	-4043.61
0.3927,0.6073	-4055.88
0.3823,0.6177	-4067.43
0.3432,0.6568	-4059.70
0.3196,0.6804	-4054.47
0.3373,0.6627	-4061.47
0.3250,0.6750	-4059.88
0.3910,0.6090	-4065.01
0.3988,0.6012	-4062.68
0.3922,0.6078	-4066.77
0.3214,0.6786	-4052.07
0.3689,0.6311	-4059.52
0.3756,0.6244	-4054.50
0.3629,0.6371	-4058.99
0.3969,0.6031	-4068.02
0.3787,0.6213	-4064.60
0.3482,0.6518	-4048.76
0.3976,0.6024	-4068.43
0.3969,0.6031	-4064.68
0.4220,0.5780	-4071.66
0.4099,0.5901	-4068.11
0.3380,0.6620	-4058.05
0.3552,0.6448	-4056.76
0.4104,0.5896	-4072.10
0.4009,0.5991	-4063.59
0.4048,0.5952	-4064.56
0.3844,0.6156	-4062.18
0.3869,0.6131	-4063.16
0.3685,0.6315	-4056.28
0.4032,0.5968	-4055.47
0.3489,0.6511	-4051.27
0.3898,0.6102	-4064.55
0.3354,0.6646	-4046.60
0.3599,0.6401	-4060.76
0.3978,0.6022	-4062.63
0.3929,0.6071	-4063.29
0.3504,0.6496	-4060.55
0.4092,0.5908	-4072.50
0.3557,0.6443	-4057.94
0.3716,0.6284	-4065.31
0.3863,0.6137	-4060.37
0.4228,0.5772	-4065.13
0.3166,0.6834	-4063.99
0.4174,0.5826	-4069.66
0.3562,0.6438	-4058.52
0.4206,0.5794	-4064.29
0.3759,0.6241	-4058.57
0.3657,0.6343	-4058.97
0.3369,0.6631	-4054.74
0.3700,0.6300	-4052.07
0.3306,0.6694	-4059.32
0.4036,0.5964	-4069.58
0.3616,0.6384	-4058.44
0.3656,0.6344	-4052.91
0.3649,0.6351	-4055.10
0.3676,0.6324	-4055.72
0.3576,0.6424	-4062.01
0.3651,0.6349	-4058.98
0.3564,0.6436	-4054.38
0.3931,0.6069	-4060.25
0.3219,0.6781	-4052.04
0.3695,0.6305	-4064.86
0.3432,0.6568	-4053.86
0.3564,0.6436	-4050.24
0.3623,0.6377	-4057.30
0.3520,0.6480	-4060.47
0.3599,0.6401	-4055.58
0.3736,0.6264	-4056.45
0.3402,0.6598	-4055.26
0.3678,0.6322	-4063.85
0.3675,0.6325	-4057.34
0.3524,0.6476	-4056.80
0.3320,0.6680	-4057.79
0.3465,0.6535	-4062.68
0.3122,0.6878	-4047.32
0.3512,0.6488	-4053.76
0.3864,0.6136	-4056.21
0.3701,0.6299	-4058.46
0.3418,0.6582	-4060.45
0.4006,0.5994	-4070.83
0.3671,0.6329	-4055.71
0.3316,0.6684	-4050.11
0.3905,0.6095	-4061.45
0.3837,0.6163	-4063.59
0.3910,0.6090	-4059.25
0.4061,0.5939	-4063.86
0.3633,0.6367	-4062.35
0.3551,0.6449	-4057.36
0.3801,0.6199	-4060.17
0.3695,0.6305	-4053.11
0.3828,0.6172	-4058.34
0.3863,0.6137	-4065.00
0.3682,0.6318	-4062.76
0.3762,0.6238	-4060.10
0.3607,0.6393	-4059.59
0.3868,0.6132	-4054.86
0.3887,0.6113	-4056.85
0.3554,0.6446	-4053.78
0.3532,0.6468	-4047.11
0.3751,0.6249	-4052.43
0.3491,0.6509	-4068.10
0.3598,0.6402	-4063.64
0.3220,0.6780	-4043.09
0.4220,0.5780	-4068.51
0.3818,0.6182	-4060.22
0.3772,0.6228	-4058.61
0.3433,0.6567	-4056.45
0.3211,0.6789	-4040.86
0.3127,0.6873	-4048.08
0.3872,0.6128	-4059.95
0.3440,0.6560	-4051.26
0.3536,0.6464	-4053.76
0.3735,0.6265	-4054.89
0.3099,0.6901	-4045.09
0.3326,0.6674	-4062.63
0.3619,0.6381	-4062.40
0.3330,0.6670	-4061.88
0.3359,0.6641	-4060.24
0.3292,0.6708	-4057.31
0.3308,0.6692	-4045.91
0.3966,0.6034	-4062.99
0.3850,0.6150	-4063.60
0.3820,0.6180	-4065.52
0.3415,0.6585	-4050.62
0.3219,0.6781	-4051.29
0.3557,0.6443	-4054.38
0.4505,0.5495	-4072.82
0.3839,0.6161	-4069.74
0.3805,0.6195	-4061.16
0.3951,0.6049	-4060.80
0.3442,0.6558	-4046.10
0.3968,0.6032	-4063.42
0.4319,0.5681	-4071.26
0.4014,0.5986	-4068.81
0.3468,0.6532	-4041.76
0.3718,0.6282	-4065.82
0.3836,0.6164	-4060.28
0.3989,0.6011	-4067.19
