#isoforms=['ENSG00000110080.SE.2.A.up_ENSG00000110080.SE.2.A.SE1_ENSG00000110080.SE.2.A.dn','ENSG00000110080.SE.2.B.up_ENSG00000110080.SE.2.B.dn']	exon_lens=('ENSG00000110080.SE.2.A.up',61),('ENSG00000110080.SE.2.A.SE1',96),('ENSG00000110080.SE.2.A.dn',190),('ENSG00000110080.SE.2.B.up',61),('ENSG00000110080.SE.2.B.dn',190)	iters=5000	burn_in=500	lag=10	percent_accept=93.14	proposal_type=drift	counts=(0,0):2053,(0,1):2,(1,0):1492,(1,1):1120	assigned_counts=0:2595,1:19	chrom=chr11	strand=+	mRNA_starts=126407574,126407574	mRNA_ends=126408496,126408496
sampled_psi	log_score
0.9901,0.0099	-14501.76
0.9879,0.0121	-14519.70
0.9894,0.0106	-14547.19
0.9910,0.0090	-14483.04
0.9868,0.0132	-14528.36
0.9891,0.0109	-14470.30
0.9893,0.0107	-14483.70
0.9893,0.0107	-14506.33
0.9880,0.0120	-14497.66
0.9890,0.0110	-14488.35
0.9888,0.0112	-14506.36
0.9872,0.0128	-14537.08
0.9884,0.0116	-14488.63
0.9883,0.0117	-14484.23
0.9885,0.0115	-14488.58
0.9902,0.0098	-14474.05
0.9887,0.0113	-14506.36
0.9889,0.0111	-14515.33
0.9909,0.0091	-14487.75
0.9850,0.0150	-14520.09
0.9888,0.0112	-14506.35
0.9922,0.0078	-14487.67
0.9884,0.0116	-14501.95
0.9899,0.0101	-14483.42
0.9913,0.0087	-14487.69
0.9852,0.0148	-14520.03
0.9881,0.0119	-14484.35
0.9913,0.0087	-14468.76
0.9871,0.0129	-14524.04
0.9926,0.0074	-14473.02
0.9927,0.0073	-14463.15
0.9883,0.0117	-14506.42
0.9855,0.0145	-14511.50
0.9912,0.0088	-14468.78
0.9885,0.0115	-14493.03
0.9915,0.0085	-14478.16
0.9916,0.0084	-14497.20
0.9905,0.0095	-14492.49
0.9837,0.0163	-14536.92
0.9929,0.0071	-14472.94
0.9889,0.0111	-14515.33
0.9927,0.0073	-14463.15
0.9909,0.0091	-14497.13
0.9914,0.0086	-14463.91
0.9836,0.0164	-14528.76
0.9921,0.0079	-14458.64
0.9903,0.0097	-14474.04
0.9926,0.0074	-14487.70
0.9891,0.0109	-14528.86
0.9908,0.0092	-14464.39
0.9830,0.0170	-14492.39
0.9907,0.0093	-14478.44
0.9878,0.0122	-14484.54
0.9945,0.0055	-14467.73
0.9866,0.0134	-14541.24
0.9906,0.0094	-14506.44
0.9839,0.0161	-14499.91
0.9888,0.0112	-14488.44
0.9850,0.0150	-14545.18
0.9937,0.0063	-14452.63
0.9876,0.0124	-14502.18
0.9905,0.0095	-14473.89
0.9875,0.0125	-14497.84
0.9890,0.0110	-14488.34
0.9881,0.0119	-14484.36
0.9946,0.0054	-14457.30
0.9869,0.0131	-14519.72
0.9908,0.0092	-14492.44
0.9880,0.0120	-14471.23
0.9911,0.0089	-14478.31
0.9891,0.0109	-14492.80
0.9946,0.0054	-14452.09
0.9834,0.0166	-14528.81
0.9918,0.0082	-14492.45
0.9868,0.0132	-14511.10
0.9895,0.0105	-14488.14
0.9884,0.0116	-14510.85
0.9938,0.0062	-14447.42
0.9805,0.0195	-14533.86
0.9913,0.0087	-14468.72
0.9855,0.0145	-14498.86
0.9909,0.0091	-14483.05
0.9901,0.0099	-14501.76
0.9935,0.0065	-14457.77
0.9829,0.0171	-14520.86
0.9898,0.0102	-14478.90
0.9895,0.0105	-14474.49
0.9918,0.0082	-14487.66
0.9900,0.0100	-14497.17
0.9935,0.0065	-14457.77
0.9834,0.0166	-14541.04
0.9923,0.0077	-14482.81
0.9888,0.0112	-14497.39
0.9937,0.0063	-14472.85
0.9907,0.0093	-14469.09
0.9934,0.0066	-14472.87
0.9811,0.0189	-14541.53
0.9932,0.0068	-14462.93
0.9904,0.0096	-14487.87
0.9942,0.0058	-14462.58
0.9911,0.0089	-14450.03
0.9946,0.0054	-14446.86
0.9850,0.0150	-14520.07
0.9939,0.0061	-14447.37
0.9908,0.0092	-14487.78
0.9926,0.0074	-14468.09
0.9918,0.0082	-14463.66
0.9939,0.0061	-14477.94
0.9883,0.0117	-14488.66
0.9945,0.0055	-14457.35
0.9899,0.0101	-14474.25
0.9930,0.0070	-14463.01
0.9906,0.0094	-14501.78
0.9935,0.0065	-14457.78
0.9901,0.0099	-14515.58
0.9932,0.0068	-14462.94
0.9887,0.0113	-14483.99
0.9931,0.0069	-14457.99
0.9903,0.0097	-14483.27
0.9938,0.0062	-14462.70
0.9881,0.0119	-14506.45
0.9922,0.0078	-14482.82
0.9869,0.0131	-14476.54
0.9948,0.0052	-14462.50
0.9912,0.0088	-14473.53
0.9950,0.0050	-14446.62
0.9905,0.0095	-14501.78
0.9939,0.0061	-14447.35
0.9867,0.0133	-14502.54
0.9957,0.0043	-14440.79
0.9921,0.0079	-14482.83
0.9960,0.0040	-14479.23
0.9886,0.0114	-14510.84
0.9941,0.0059	-14462.62
0.9897,0.0103	-14520.03
0.9964,0.0036	-14446.01
0.9899,0.0101	-14492.59
0.9962,0.0038	-14434.95
0.9886,0.0114	-14506.37
0.9936,0.0064	-14477.89
0.9881,0.0119	-14488.78
0.9967,0.0033	-14463.13
0.9869,0.0131	-14506.75
0.9961,0.0039	-14446.07
0.9887,0.0113	-14488.48
0.9925,0.0075	-14468.13
0.9913,0.0087	-14492.43
0.9967,0.0033	-14463.07
0.9882,0.0118	-14515.29
0.9968,0.0032	-14445.95
0.9901,0.0099	-14478.75
0.9936,0.0064	-14487.99
0.9914,0.0086	-14473.45
0.9957,0.0043	-14451.69
0.9884,0.0116	-14501.95
0.9966,0.0034	-14462.97
0.9899,0.0101	-14483.43
0.9926,0.0074	-14497.50
0.9913,0.0087	-14468.73
0.9958,0.0042	-14446.21
0.9907,0.0093	-14497.13
0.9964,0.0036	-14457.24
0.9902,0.0098	-14487.91
0.9938,0.0062	-14457.64
0.9927,0.0073	-14463.18
0.9959,0.0041	-14446.16
0.9909,0.0091	-14473.70
0.9967,0.0033	-14428.79
0.9904,0.0096	-14478.57
0.9930,0.0070	-14507.56
0.9942,0.0058	-14442.01
0.9963,0.0037	-14451.62
0.9915,0.0085	-14473.39
0.9970,0.0030	-14451.77
0.9911,0.0089	-14464.18
0.9938,0.0062	-14488.09
0.9945,0.0055	-14488.55
0.9960,0.0040	-14446.11
0.9922,0.0078	-14473.11
0.9967,0.0033	-14440.26
0.9903,0.0097	-14469.41
0.9938,0.0062	-14503.27
0.9943,0.0057	-14478.03
0.9954,0.0046	-14451.77
0.9929,0.0071	-14468.02
0.9959,0.0041	-14462.63
0.9905,0.0095	-14478.53
0.9912,0.0088	-14473.54
0.9932,0.0068	-14467.91
0.9953,0.0047	-14446.44
0.9925,0.0075	-14473.03
0.9955,0.0045	-14462.53
0.9913,0.0087	-14520.84
0.9909,0.0091	-14478.38
0.9934,0.0066	-14502.94
0.9959,0.0041	-14457.14
0.9908,0.0092	-14487.77
0.9953,0.0047	-14467.85
0.9914,0.0086	-14468.72
0.9896,0.0104	-14483.56
0.9931,0.0069	-14457.97
0.9961,0.0039	-14451.63
0.9885,0.0115	-14528.65
0.9954,0.0046	-14473.29
0.9916,0.0084	-14463.78
0.9895,0.0105	-14492.68
0.9929,0.0071	-14492.72
0.9952,0.0048	-14446.52
0.9875,0.0125	-14471.60
0.9947,0.0053	-14467.74
0.9915,0.0085	-14487.67
0.9920,0.0080	-14502.13
0.9910,0.0090	-14464.20
0.9960,0.0040	-14435.11
0.9879,0.0121	-14484.49
0.9938,0.0062	-14467.77
0.9931,0.0069	-14487.82
0.9924,0.0076	-14463.30
0.9937,0.0063	-14467.79
0.9962,0.0038	-14446.04
0.9900,0.0100	-14520.15
0.9913,0.0087	-14468.76
0.9941,0.0059	-14467.73
0.9921,0.0079	-14487.66
0.9943,0.0057	-14472.89
0.9967,0.0033	-14457.40
0.9881,0.0119	-14506.45
0.9922,0.0078	-14453.74
0.9945,0.0055	-14452.15
0.9906,0.0094	-14492.47
0.9940,0.0060	-14457.54
0.9957,0.0043	-14462.58
0.9864,0.0136	-14532.64
0.9932,0.0068	-14467.89
0.9940,0.0060	-14467.75
0.9909,0.0091	-14478.39
0.9948,0.0052	-14451.98
0.9953,0.0047	-14462.50
0.9874,0.0126	-14480.47
0.9934,0.0066	-14462.82
0.9943,0.0057	-14478.06
0.9915,0.0085	-14492.43
0.9945,0.0055	-14446.94
0.9951,0.0049	-14467.80
0.9874,0.0126	-14484.82
0.9938,0.0062	-14483.00
0.9947,0.0053	-14436.33
0.9910,0.0090	-14483.03
0.9944,0.0056	-14488.45
0.9956,0.0044	-14451.70
0.9888,0.0112	-14483.93
0.9941,0.0059	-14462.62
0.9923,0.0077	-14463.35
0.9928,0.0072	-14468.03
0.9949,0.0051	-14457.22
0.9951,0.0049	-14467.81
0.9916,0.0084	-14492.44
0.9957,0.0043	-14440.80
0.9917,0.0083	-14487.66
0.9927,0.0073	-14443.51
0.9945,0.0055	-14446.94
0.9942,0.0058	-14436.87
0.9897,0.0103	-14492.64
0.9956,0.0044	-14462.55
0.9910,0.0090	-14473.64
0.9928,0.0072	-14453.22
0.9951,0.0049	-14446.53
0.9940,0.0060	-14452.39
0.9880,0.0120	-14484.42
0.9962,0.0038	-14440.49
0.9913,0.0087	-14478.21
0.9928,0.0072	-14527.09
0.9941,0.0059	-14477.98
0.9925,0.0075	-14477.92
0.9902,0.0098	-14506.37
0.9952,0.0048	-14446.47
0.9917,0.0083	-14516.39
0.9923,0.0077	-14473.10
0.9936,0.0064	-14477.89
0.9917,0.0083	-14487.66
0.9900,0.0100	-14501.76
0.9955,0.0045	-14451.74
0.9914,0.0086	-14468.67
0.9916,0.0084	-14478.12
0.9933,0.0067	-14482.87
0.9903,0.0097	-14474.00
0.9879,0.0121	-14488.90
0.9960,0.0040	-14462.69
0.9905,0.0095	-14497.13
0.9925,0.0075	-14477.93
0.9928,0.0072	-14477.89
0.9872,0.0128	-14489.27
0.9891,0.0109	-14483.80
0.9959,0.0041	-14451.65
0.9915,0.0085	-14516.22
0.9924,0.0076	-14468.19
0.9931,0.0069	-14497.75
0.9860,0.0140	-14511.33
0.9869,0.0131	-14511.09
0.9950,0.0050	-14462.49
0.9927,0.0073	-14468.09
0.9931,0.0069	-14448.04
0.9936,0.0064	-14457.72
0.9842,0.0158	-14540.99
0.9844,0.0156	-14520.26
0.9945,0.0055	-14467.73
0.9923,0.0077	-14463.40
0.9939,0.0061	-14457.59
0.9925,0.0075	-14448.64
0.9862,0.0138	-14489.95
0.9858,0.0142	-14511.41
0.9940,0.0060	-14452.40
0.9916,0.0084	-14473.34
0.9945,0.0055	-14488.48
0.9915,0.0085	-14501.95
0.9866,0.0134	-14519.75
0.9846,0.0154	-14491.12
0.9948,0.0052	-14462.50
0.9917,0.0083	-14487.66
0.9953,0.0047	-14467.85
0.9928,0.0072	-14477.89
0.9850,0.0150	-14528.44
0.9857,0.0143	-14519.91
0.9944,0.0056	-14472.90
0.9902,0.0098	-14474.04
0.9960,0.0040	-14440.59
0.9907,0.0093	-14473.77
0.9848,0.0152	-14532.65
0.9850,0.0150	-14507.52
0.9932,0.0068	-14482.86
0.9872,0.0128	-14493.65
0.9952,0.0048	-14451.82
0.9891,0.0109	-14483.78
0.9858,0.0142	-14490.24
0.9846,0.0154	-14524.35
0.9941,0.0059	-14478.00
0.9870,0.0130	-14485.09
0.9952,0.0048	-14467.84
0.9909,0.0091	-14473.66
0.9883,0.0117	-14510.86
0.9844,0.0156	-14536.84
0.9936,0.0064	-14467.82
0.9847,0.0153	-14478.56
0.9953,0.0047	-14446.43
0.9926,0.0074	-14487.71
0.9886,0.0114	-14501.92
0.9861,0.0139	-14515.57
0.9927,0.0073	-14468.08
0.9828,0.0172	-14516.86
0.9946,0.0054	-14446.87
0.9924,0.0076	-14482.81
0.9875,0.0125	-14484.75
0.9871,0.0129	-14519.71
0.9946,0.0054	-14462.52
0.9814,0.0186	-14529.54
0.9943,0.0057	-14467.73
0.9939,0.0061	-14488.12
0.9886,0.0114	-14506.38
0.9885,0.0115	-14488.57
0.9951,0.0049	-14462.49
0.9822,0.0178	-14533.22
0.9933,0.0067	-14462.87
0.9944,0.0056	-14472.90
0.9854,0.0146	-14494.73
0.9896,0.0104	-14519.99
0.9959,0.0041	-14451.65
0.9859,0.0141	-14519.86
0.9921,0.0079	-14487.66
0.9949,0.0051	-14467.76
0.9863,0.0137	-14494.16
0.9898,0.0102	-14510.91
0.9952,0.0048	-14483.79
0.9868,0.0132	-14511.09
0.9943,0.0057	-14462.56
0.9952,0.0048	-14457.16
0.9781,0.0219	-14554.10
0.9907,0.0093	-14487.78
0.9948,0.0052	-14467.75
0.9891,0.0109	-14474.77
0.9938,0.0062	-14488.10
0.9960,0.0040	-14457.15
0.9835,0.0165	-14541.04
0.9920,0.0080	-14458.73
0.9946,0.0054	-14472.95
0.9883,0.0117	-14519.73
0.9931,0.0069	-14492.79
0.9949,0.0051	-14478.29
0.9879,0.0121	-14515.30
0.9919,0.0081	-14497.26
0.9947,0.0053	-14452.04
0.9906,0.0094	-14525.05
0.9930,0.0070	-14467.97
0.9953,0.0047	-14489.31
0.9882,0.0118	-14479.89
0.9925,0.0075	-14453.53
0.9946,0.0054	-14483.37
0.9924,0.0076	-14473.05
0.9926,0.0074	-14473.01
0.9943,0.0057	-14483.20
0.9881,0.0119	-14515.29
0.9922,0.0078	-14507.06
0.9947,0.0053	-14446.78
0.9926,0.0074	-14492.60
0.9932,0.0068	-14487.84
0.9936,0.0064	-14472.85
0.9870,0.0130	-14511.06
0.9913,0.0087	-14506.62
0.9945,0.0055	-14472.93
0.9924,0.0076	-14473.06
0.9946,0.0054	-14462.52
0.9939,0.0061	-14488.14
0.9882,0.0118	-14497.58
0.9891,0.0109	-14497.33
0.9941,0.0059	-14477.99
0.9932,0.0068	-14472.89
0.9931,0.0069	-14472.90
0.9943,0.0057	-14457.41
0.9876,0.0124	-14475.88
0.9887,0.0113	-14497.43
0.9942,0.0058	-14457.43
0.9923,0.0077	-14477.96
0.9925,0.0075	-14487.69
0.9952,0.0048	-14467.83
0.9897,0.0103	-14501.77
0.9868,0.0132	-14515.41
0.9941,0.0059	-14462.62
0.9939,0.0061	-14483.05
0.9938,0.0062	-14472.85
0.9954,0.0046	-14435.59
0.9926,0.0074	-14458.28
0.9902,0.0098	-14487.91
0.9936,0.0064	-14482.95
0.9931,0.0069	-14467.93
0.9941,0.0059	-14462.61
0.9959,0.0041	-14457.14
0.9918,0.0082	-14502.05
0.9918,0.0082	-14478.06
0.9942,0.0058	-14457.46
0.9928,0.0072	-14477.89
0.9934,0.0066	-14487.92
0.9956,0.0044	-14440.83
0.9904,0.0096	-14483.21
0.9910,0.0090	-14497.14
0.9926,0.0074	-14463.22
0.9938,0.0062	-14457.61
0.9950,0.0050	-14473.09
0.9949,0.0051	-14446.67
0.9896,0.0104	-14515.43
0.9920,0.0080	-14458.70
0.9928,0.0072	-14463.12
0.9923,0.0077	-14473.09
0.9950,0.0050	-14462.49
0.9953,0.0047	-14457.14
0.9886,0.0114	-14506.37
0.9930,0.0070	-14507.62
0.9928,0.0072	-14472.95
0.9924,0.0076	-14463.34
0.9943,0.0057	-14488.35
0.9958,0.0042	-14457.13
0.9885,0.0115	-14555.42
0.9940,0.0060	-14462.64
0.9908,0.0092	-14515.86
0.9938,0.0062	-14462.69
0.9937,0.0063	-14467.79
0.9955,0.0045	-14478.71
0.9869,0.0131	-14502.44
0.9943,0.0057	-14457.41
0.9879,0.0121	-14466.85
0.9946,0.0054	-14452.09
0.9943,0.0057	-14457.40
0.9964,0.0036	-14451.63
0.9883,0.0117	-14488.70
0.9956,0.0044	-14457.13
0.9883,0.0117	-14484.25
0.9951,0.0049	-14446.54
0.9937,0.0063	-14447.55
0.9963,0.0037	-14446.01
0.9888,0.0112	-14528.77
0.9947,0.0053	-14467.74
0.9886,0.0114	-14497.47
0.9952,0.0048	-14451.83
0.9940,0.0060	-14483.06
0.9955,0.0045	-14467.93
0.9911,0.0089	-14497.15
0.9939,0.0061	-14462.66
0.9870,0.0130	-14515.38
0.9958,0.0042	-14462.59
0.9926,0.0074	-14458.29
0.9950,0.0050	-14467.79
0.9933,0.0067	-14487.87
0.9933,0.0067	-14492.88
0.9892,0.0108	-14506.33
0.9960,0.0040	-14446.13
0.9936,0.0064	-14472.85
0.9950,0.0050	-14467.78
0.9942,0.0058	-14467.73
0.9938,0.0062	-14477.92
0.9885,0.0115	-14484.14
0.9967,0.0033	-14440.25
0.9938,0.0062	-14472.85
0.9946,0.0054	-14457.29
0.9942,0.0058	-14483.18
0.9951,0.0049	-14457.18
0.9876,0.0124	-14462.79
0.9970,0.0030	-14440.14
0.9948,0.0052	-14457.24
0.9940,0.0060	-14457.51
0.9953,0.0047	-14478.58
0.9949,0.0051	-14446.69
0.9892,0.0108	-14506.33
0.9975,0.0025	-14440.07
0.9948,0.0052	-14473.02
0.9946,0.0054	-14478.16
0.9961,0.0039	-14451.63
0.9942,0.0058	-14447.15
0.9891,0.0109	-14488.31
0.9960,0.0040	-14457.16
0.9936,0.0064	-14457.74
0.9947,0.0053	-14467.74
0.9956,0.0044	-14457.13
0.9928,0.0072	-14468.02
0.9906,0.0094	-14506.44
0.9968,0.0032	-14451.70
0.9953,0.0047	-14446.46
0.9952,0.0048	-14489.13
0.9953,0.0047	-14467.85
0.9924,0.0076	-14468.18
0.9918,0.0082	-14473.26
0.9975,0.0025	-14434.07
0.9956,0.0044	-14457.13
0.9961,0.0039	-14451.62
0.9948,0.0052	-14462.50
0.9908,0.0092	-14464.36
0.9932,0.0068	-14502.82
0.9976,0.0024	-14446.09
0.9954,0.0046	-14440.98
0.9962,0.0038	-14434.88
0.9958,0.0042	-14473.55
0.9920,0.0080	-14487.65
0.9913,0.0087	-14497.16
0.9976,0.0024	-14440.07
0.9959,0.0041	-14457.14
0.9964,0.0036	-14440.38
0.9955,0.0045	-14451.74
0.9916,0.0084	-14459.06
0.9909,0.0091	-14487.75
0.9981,0.0019	-14427.67
0.9967,0.0033	-14434.54
0.9960,0.0040	-14462.66
0.9961,0.0039	-14457.16
0.9900,0.0100	-14510.95
0.9901,0.0099	-14474.13
0.9977,0.0023	-14446.16
0.9965,0.0035	-14462.96
0.9970,0.0030	-14457.53
0.9958,0.0042	-14446.21
0.9921,0.0079	-14482.82
0.9887,0.0113	-14479.51
0.9974,0.0026	-14434.14
0.9973,0.0027	-14451.90
0.9971,0.0029	-14451.79
0.9961,0.0039	-14440.54
0.9923,0.0077	-14473.11
0.9914,0.0086	-14487.68
0.9969,0.0031	-14451.71
0.9972,0.0028	-14451.83
0.9970,0.0030	-14440.16
0.9968,0.0032	-14451.70
0.9939,0.0061	-14477.95
0.9926,0.0074	-14468.11
0.9966,0.0034	-14440.30
0.9979,0.0021	-14446.33
0.9966,0.0034	-14434.59
0.9975,0.0025	-14452.06
0.9943,0.0057	-14472.89
0.9919,0.0081	-14478.04
0.9967,0.0033	-14445.96
0.9986,0.0014	-14427.48
0.9969,0.0031	-14440.18
0.9978,0.0022	-14458.48
0.9940,0.0060	-14457.53
0.9920,0.0080	-14482.84
0.9967,0.0033	-14445.95
0.9986,0.0014	-14427.48
0.9956,0.0044	-14446.28
0.9980,0.0020	-14446.40
0.9933,0.0067	-14487.86
0.9931,0.0069	-14453.01
0.9966,0.0034	-14445.97
0.9985,0.0015	-14427.51
0.9963,0.0037	-14446.02
0.9980,0.0020	-14440.15
0.9912,0.0088	-14478.25
0.9942,0.0058	-14493.48
0.9970,0.0030	-14445.95
0.9985,0.0015	-14453.50
0.9959,0.0041	-14457.14
0.9982,0.0018	-14440.28
0.9891,0.0109	-14497.31
0.9940,0.0060	-14462.63
0.9965,0.0035	-14451.63
0.9986,0.0014	-14440.59
0.9959,0.0041	-14446.17
0.9979,0.0021	-14440.13
0.9882,0.0118	-14493.15
0.9938,0.0062	-14472.85
0.9960,0.0040	-14451.64
0.9987,0.0013	-14440.78
0.9952,0.0048	-14457.16
0.9982,0.0018	-14465.45
0.9882,0.0118	-14502.00
0.9934,0.0066	-14452.84
0.9963,0.0037	-14440.42
0.9986,0.0014	-14453.72
0.9955,0.0045	-14462.53
0.9982,0.0018	-14440.28
0.9864,0.0136	-14506.92
0.9922,0.0078	-14473.12
0.9952,0.0048	-14467.84
0.9988,0.0012	-14434.16
0.9955,0.0045	-14467.94
0.9980,0.0020	-14446.35
0.9890,0.0110	-14479.36
0.9929,0.0071	-14482.82
0.9957,0.0043	-14451.68
0.9987,0.0013	-14447.31
0.9953,0.0047	-14441.07
0.9982,0.0018	-14440.27
0.9861,0.0139	-14511.31
0.9939,0.0061	-14508.50
0.9960,0.0040	-14451.64
0.9987,0.0013	-14440.72
0.9947,0.0053	-14457.26
0.9987,0.0013	-14427.47
0.9862,0.0138	-14532.62
0.9931,0.0069	-14462.97
0.9957,0.0043	-14451.68
0.9984,0.0016	-14446.86
0.9934,0.0066	-14462.83
0.9986,0.0014	-14447.27
0.9854,0.0146	-14524.19
0.9938,0.0062	-14457.60
0.9963,0.0037	-14446.02
0.9979,0.0021	-14446.30
0.9934,0.0066	-14467.84
0.9986,0.0014	-14447.21
0.9836,0.0164	-14528.74
0.9943,0.0057	-14472.89
0.9965,0.0035	-14445.99
0.9980,0.0020	-14433.96
0.9947,0.0053	-14462.50
0.9983,0.0017	-14433.95
0.9857,0.0143	-14519.91
0.9951,0.0049	-14473.10
0.9970,0.0030	-14463.41
0.9978,0.0022	-14446.23
0.9948,0.0052	-14451.97
0.9982,0.0018	-14433.94
0.9881,0.0119	-14484.37
0.9955,0.0045	-14451.73
0.9973,0.0027	-14463.73
0.9974,0.0026	-14440.08
0.9945,0.0055	-14452.13
0.9986,0.0014	-14427.50
0.9888,0.0112	-14506.36
0.9953,0.0047	-14446.43
0.9978,0.0022	-14434.00
0.9978,0.0022	-14446.24
0.9948,0.0052	-14462.50
0.9984,0.0016	-14446.81
0.9900,0.0100	-14515.54
0.9951,0.0049	-14451.87
0.9977,0.0023	-14452.26
0.9978,0.0022	-14470.62
0.9958,0.0042	-14468.04
0.9984,0.0016	-14427.55
0.9895,0.0105	-14492.69
0.9955,0.0045	-14467.94
0.9975,0.0025	-14434.10
0.9975,0.0025	-14434.09
0.9965,0.0035	-14445.97
0.9980,0.0020	-14440.17
0.9931,0.0069	-14477.87
0.9962,0.0038	-14462.74
0.9971,0.0029	-14445.96
0.9970,0.0030	-14451.77
0.9966,0.0034	-14451.64
0.9979,0.0021	-14452.48
0.9917,0.0083	-14473.33
0.9961,0.0039	-14451.63
0.9974,0.0026	-14452.00
0.9972,0.0028	-14463.56
0.9972,0.0028	-14457.72
0.9974,0.0026	-14434.11
0.9891,0.0109	-14492.82
0.9956,0.0044	-14446.26
0.9977,0.0023	-14452.22
0.9976,0.0024	-14446.09
0.9970,0.0030	-14463.33
0.9974,0.0026	-14452.01
0.9878,0.0122	-14515.30
0.9953,0.0047	-14473.23
0.9967,0.0033	-14440.26
0.9974,0.0026	-14463.82
0.9978,0.0022	-14433.97
0.9975,0.0025	-14440.07
0.9910,0.0090	-14464.25
0.9959,0.0041	-14429.68
0.9962,0.0038	-14473.91
0.9979,0.0021	-14427.77
0.9979,0.0021	-14440.14
0.9974,0.0026	-14440.08
0.9906,0.0094	-14492.47
0.9955,0.0045	-14467.92
0.9965,0.0035	-14451.63
0.9980,0.0020	-14427.73
0.9983,0.0017	-14446.70
0.9969,0.0031	-14434.41
0.9897,0.0103	-14469.78
0.9954,0.0046	-14451.76
0.9958,0.0042	-14446.18
0.9975,0.0025	-14440.07
0.9981,0.0019	-14433.94
0.9979,0.0021	-14440.11
0.9897,0.0103	-14478.92
0.9954,0.0046	-14473.28
0.9961,0.0039	-14446.09
0.9972,0.0028	-14445.98
0.9981,0.0019	-14440.23
0.9979,0.0021	-14446.26
0.9881,0.0119	-14497.62
0.9955,0.0045	-14451.74
0.9962,0.0038	-14462.78
0.9976,0.0024	-14446.10
0.9985,0.0015	-14447.09
0.9978,0.0022	-14452.36
0.9869,0.0131	-14519.72
0.9960,0.0040	-14451.63
0.9955,0.0045	-14467.95
0.9975,0.0025	-14457.99
0.9985,0.0015	-14434.01
0.9976,0.0024	-14446.08
0.9872,0.0128	-14497.98
0.9961,0.0039	-14457.16
0.9942,0.0058	-14467.73
0.9970,0.0030	-14445.95
0.9982,0.0018	-14433.95
0.9971,0.0029	-14440.12
0.9860,0.0140	-14558.13
0.9962,0.0038	-14446.04
0.9947,0.0053	-14462.51
0.9971,0.0029	-14445.96
0.9985,0.0015	-14427.51
0.9970,0.0030	-14445.95
0.9857,0.0143	-14515.68
0.9964,0.0036	-14446.00
0.9940,0.0060	-14462.62
0.9975,0.0025	-14464.10
0.9985,0.0015	-14440.50
0.9972,0.0028	-14451.86
0.9850,0.0150	-14536.82
0.9958,0.0042	-14440.74
0.9940,0.0060	-14462.65
0.9977,0.0023	-14434.02
0.9985,0.0015	-14447.03
0.9972,0.0028	-14434.22
0.9861,0.0139	-14485.71
0.9964,0.0036	-14457.24
0.9946,0.0054	-14457.30
0.9977,0.0023	-14440.08
0.9984,0.0016	-14446.86
0.9966,0.0034	-14445.97
0.9877,0.0123	-14502.15
0.9960,0.0040	-14451.63
0.9942,0.0058	-14472.88
0.9979,0.0021	-14458.56
0.9982,0.0018	-14465.45
0.9966,0.0034	-14462.99
0.9890,0.0110	-14497.35
0.9946,0.0054	-14446.88
0.9937,0.0063	-14472.85
0.9977,0.0023	-14434.01
0.9980,0.0020	-14440.17
0.9964,0.0036	-14440.38
0.9917,0.0083	-14478.10
0.9942,0.0058	-14467.73
0.9938,0.0062	-14457.60
0.9979,0.0021	-14471.02
0.9980,0.0020	-14427.73
0.9959,0.0041	-14446.15
0.9929,0.0071	-14467.98
0.9930,0.0070	-14462.99
0.9947,0.0053	-14452.03
0.9978,0.0022	-14440.11
0.9977,0.0023	-14427.98
0.9960,0.0040	-14468.17
0.9913,0.0087	-14506.63
0.9933,0.0067	-14452.85
0.9929,0.0071	-14477.88
0.9981,0.0019	-14440.23
0.9965,0.0035	-14434.71
0.9954,0.0046	-14451.75
0.9915,0.0085	-14497.19
0.9937,0.0063	-14488.01
0.9949,0.0051	-14441.42
0.9979,0.0021	-14446.33
0.9939,0.0061	-14447.36
0.9949,0.0051	-14441.38
0.9915,0.0085	-14497.19
0.9938,0.0062	-14457.61
0.9946,0.0054	-14488.61
0.9975,0.0025	-14434.07
0.9927,0.0073	-14468.06
0.9941,0.0059	-14457.48
0.9918,0.0082	-14492.46
0.9941,0.0059	-14452.35
0.9945,0.0055	-14462.53
0.9977,0.0023	-14440.09
0.9932,0.0068	-14457.91
0.9943,0.0057	-14462.56
0.9931,0.0069	-14462.97
0.9927,0.0073	-14472.99
0.9959,0.0041	-14468.11
0.9975,0.0025	-14446.06
0.9941,0.0059	-14462.62
0.9942,0.0058	-14483.17
0.9938,0.0062	-14437.26
0.9929,0.0071	-14458.11
0.9955,0.0045	-14440.91
0.9970,0.0030	-14445.95
0.9927,0.0073	-14492.62
0.9956,0.0044	-14440.83
0.9943,0.0057	-14467.73
0.9937,0.0063	-14457.69
0.9948,0.0052	-14457.25
0.9966,0.0034	-14462.99
0.9934,0.0066	-14482.89
0.9941,0.0059	-14467.73
0.9948,0.0052	-14452.01
0.9935,0.0065	-14462.81
0.9943,0.0057	-14478.04
0.9965,0.0035	-14429.04
0.9923,0.0077	-14463.37
0.9934,0.0066	-14492.91
0.9962,0.0038	-14457.18
0.9936,0.0064	-14467.82
0.9942,0.0058	-14472.87
0.9966,0.0034	-14434.64
0.9928,0.0072	-14482.82
0.9928,0.0072	-14458.17
0.9950,0.0050	-14462.49
0.9936,0.0064	-14457.70
0.9923,0.0077	-14511.94
0.9963,0.0037	-14451.62
0.9928,0.0072	-14468.04
0.9917,0.0083	-14492.44
0.9952,0.0048	-14457.16
0.9938,0.0062	-14472.85
0.9922,0.0078	-14487.66
0.9950,0.0050	-14446.62
0.9910,0.0090	-14478.33
0.9905,0.0095	-14487.84
0.9953,0.0047	-14451.79
0.9937,0.0063	-14472.85
0.9925,0.0075	-14463.26
0.9944,0.0056	-14467.72
0.9914,0.0086	-14501.91
0.9932,0.0068	-14467.91
0.9946,0.0054	-14457.31
0.9921,0.0079	-14473.16
0.9911,0.0089	-14468.84
0.9957,0.0043	-14468.02
0.9931,0.0069	-14457.99
0.9936,0.0064	-14482.94
0.9947,0.0053	-14478.22
0.9908,0.0092	-14473.72
0.9888,0.0112	-14483.94
0.9952,0.0048	-14451.83
0.9936,0.0064	-14452.70
0.9925,0.0075	-14473.04
0.9960,0.0040	-14446.13
0.9909,0.0091	-14473.68
0.9905,0.0095	-14478.53
0.9960,0.0040	-14473.70
0.9935,0.0065	-14472.86
0.9917,0.0083	-14463.77
0.9961,0.0039	-14451.63
0.9906,0.0094	-14469.16
0.9904,0.0096	-14478.59
0.9961,0.0039	-14479.40
0.9938,0.0062	-14503.27
0.9903,0.0097	-14473.99
0.9958,0.0042	-14451.66
0.9891,0.0109	-14483.80
0.9885,0.0115	-14493.03
0.9960,0.0040	-14457.15
0.9961,0.0039	-14451.63
0.9889,0.0111	-14510.84
0.9966,0.0034	-14457.31
0.9903,0.0097	-14501.76
0.9861,0.0139	-14528.35
0.9958,0.0042	-14446.18
0.9954,0.0046	-14451.76
0.9888,0.0112	-14465.99
0.9964,0.0036	-14446.00
0.9902,0.0098	-14487.90
0.9839,0.0161	-14532.77
0.9967,0.0033	-14463.13
0.9958,0.0042	-14462.61
0.9918,0.0082	-14482.86
0.9957,0.0043	-14473.47
0.9910,0.0090	-14478.34
0.9855,0.0145	-14503.07
0.9958,0.0042	-14446.18
0.9955,0.0045	-14446.31
0.9904,0.0096	-14469.32
0.9945,0.0055	-14452.14
0.9903,0.0097	-14487.89
0.9853,0.0147	-14524.20
0.9962,0.0038	-14434.91
0.9957,0.0043	-14451.68
0.9901,0.0099	-14487.94
0.9951,0.0049	-14430.59
0.9934,0.0066	-14457.82
0.9865,0.0135	-14494.02
0.9956,0.0044	-14467.97
0.9958,0.0042	-14446.19
0.9891,0.0109	-14479.30
0.9955,0.0045	-14446.34
0.9925,0.0075	-14477.91
0.9880,0.0120	-14510.88
0.9946,0.0054	-14457.31
0.9963,0.0037	-14490.86
0.9886,0.0114	-14497.44
0.9956,0.0044	-14457.13
0.9919,0.0081	-14454.03
0.9847,0.0153	-14540.99
0.9933,0.0067	-14477.88
0.9957,0.0043	-14468.01
0.9862,0.0138	-14507.01
0.9964,0.0036	-14457.24
0.9912,0.0088	-14449.86
0.9851,0.0149	-14499.07
0.9934,0.0066	-14487.89
0.9956,0.0044	-14478.78
0.9862,0.0138	-14498.47
0.9963,0.0037	-14446.03
0.9923,0.0077	-14468.25
0.9860,0.0140	-14502.81
0.9925,0.0075	-14482.81
0.9955,0.0045	-14457.13
0.9865,0.0135	-14494.02
0.9965,0.0035	-14440.32
0.9915,0.0085	-14454.36
0.9882,0.0118	-14515.29
0.9942,0.0058	-14462.59
0.9954,0.0046	-14457.14
0.9874,0.0126	-14502.26
0.9969,0.0031	-14445.95
0.9917,0.0083	-14487.66
0.9883,0.0117	-14493.11
0.9948,0.0052	-14462.50
0.9957,0.0043	-14462.56
0.9889,0.0111	-14528.79
0.9970,0.0030	-14451.76
0.9907,0.0093	-14487.79
0.9888,0.0112	-14519.80
0.9939,0.0061	-14488.13
0.9961,0.0039	-14462.71
0.9910,0.0090	-14497.14
0.9967,0.0033	-14445.95
0.9921,0.0079	-14473.16
0.9848,0.0152	-14540.99
0.9947,0.0053	-14457.26
0.9959,0.0041	-14473.58
0.9909,0.0091	-14473.66
0.9974,0.0026	-14446.02
0.9904,0.0096	-14469.32
0.9846,0.0154	-14532.68
0.9950,0.0050	-14446.63
0.9949,0.0051	-14451.94
0.9915,0.0085	-14497.18
0.9969,0.0031	-14434.40
0.9926,0.0074	-14482.81
0.9831,0.0169	-14524.82
0.9952,0.0048	-14451.83
0.9945,0.0055	-14462.52
0.9918,0.0082	-14478.07
0.9965,0.0035	-14457.30
0.9931,0.0069	-14477.87
0.9862,0.0138	-14524.08
0.9957,0.0043	-14462.57
0.9952,0.0048	-14457.15
0.9901,0.0099	-14510.96
0.9966,0.0034	-14445.96
0.9939,0.0061	-14457.55
0.9878,0.0122	-14497.74
0.9960,0.0040	-14440.62
0.9947,0.0053	-14462.50
0.9891,0.0109	-14510.84
0.9963,0.0037	-14457.22
0.9946,0.0054	-14462.52
0.9904,0.0096	-14478.58
0.9965,0.0035	-14440.31
0.9952,0.0048	-14462.50
0.9900,0.0100	-14474.21
0.9971,0.0029	-14445.96
0.9955,0.0045	-14467.92
0.9917,0.0083	-14458.94
0.9971,0.0029	-14440.12
0.9954,0.0046	-14440.99
0.9901,0.0099	-14497.16
0.9974,0.0026	-14451.94
0.9953,0.0047	-14467.86
0.9883,0.0117	-14488.69
0.9973,0.0027	-14440.09
0.9955,0.0045	-14457.13
0.9927,0.0073	-14458.25
0.9973,0.0027	-14457.86
0.9961,0.0039	-14468.25
0.9932,0.0068	-14467.91
0.9968,0.0032	-14440.19
0.9963,0.0037	-14440.45
0.9928,0.0072	-14472.96
0.9971,0.0029	-14451.82
0.9953,0.0047	-14462.50
0.9932,0.0068	-14487.83
0.9968,0.0032	-14434.44
0.9949,0.0051	-14488.85
0.9915,0.0085	-14454.34
0.9969,0.0031	-14463.28
0.9951,0.0049	-14462.49
0.9938,0.0062	-14447.48
0.9958,0.0042	-14484.43
0.9940,0.0060	-14462.63
0.9913,0.0087	-14482.95
0.9967,0.0033	-14440.23
0.9951,0.0049	-14462.49
0.9933,0.0067	-14487.86
0.9948,0.0052	-14457.25
0.9922,0.0078	-14463.41
0.9899,0.0101	-14478.84
0.9959,0.0041	-14440.64
0.9941,0.0059	-14447.25
0.9912,0.0088	-14497.15
0.9954,0.0046	-14473.26
0.9924,0.0076	-14482.81
0.9900,0.0100	-14460.41
0.9964,0.0036	-14468.45
0.9947,0.0053	-14446.78
0.9923,0.0077	-14477.95
0.9959,0.0041	-14457.14
0.9913,0.0087	-14492.43
0.9895,0.0105	-14483.59
0.9961,0.0039	-14446.10
0.9951,0.0049	-14467.81
0.9931,0.0069	-14462.95
0.9964,0.0036	-14451.63
0.9905,0.0095	-14492.49
0.9862,0.0138	-14511.28
0.9963,0.0037	-14457.21
0.9944,0.0056	-14452.20
0.9929,0.0071	-14472.94
0.9970,0.0030	-14434.34
0.9920,0.0080	-14463.58
0.9891,0.0109	-14492.80
0.9967,0.0033	-14445.95
0.9958,0.0042	-14440.74
0.9941,0.0059	-14498.52
0.9963,0.0037	-14451.62
0.9897,0.0103	-14488.06
0.9894,0.0106	-14497.25
0.9965,0.0035	-14451.63
0.9967,0.0033	-14445.95
0.9919,0.0081	-14492.47
0.9963,0.0037	-14473.97
0.9905,0.0095	-14492.48
0.9909,0.0091	-14468.99
0.9969,0.0031	-14440.16
0.9974,0.0026	-14446.02
0.9931,0.0069	-14487.81
0.9952,0.0048	-14451.84
0.9907,0.0093	-14478.45
0.9910,0.0090	-14473.62
0.9965,0.0035	-14468.59
0.9971,0.0029	-14451.81
0.9947,0.0053	-14488.67
0.9960,0.0040	-14446.13
0.9915,0.0085	-14497.19
0.9913,0.0087	-14468.76
0.9967,0.0033	-14457.39
0.9968,0.0032	-14440.20
0.9954,0.0046	-14451.76
0.9955,0.0045	-14451.73
0.9930,0.0070	-14467.96
0.9918,0.0082	-14449.29
0.9968,0.0032	-14440.22
0.9969,0.0031	-14463.31
0.9954,0.0046	-14435.64
0.9967,0.0033	-14445.96
0.9937,0.0063	-14452.59
0.9921,0.0079	-14458.69
0.9967,0.0033	-14445.95
0.9968,0.0032	-14445.95
0.9970,0.0030	-14445.95
0.9970,0.0030	-14445.95
0.9943,0.0057	-14441.89
0.9917,0.0083	-14458.94
0.9969,0.0031	-14445.95
0.9966,0.0034	-14445.96
0.9962,0.0038	-14434.90
0.9971,0.0029	-14457.65
0.9961,0.0039	-14440.52
0.9928,0.0072	-14463.10
0.9969,0.0031	-14440.17
0.9949,0.0051	-14483.55
0.9962,0.0038	-14446.06
0.9976,0.0024	-14452.10
0.9962,0.0038	-14440.50
0.9933,0.0067	-14482.88
0.9970,0.0030	-14457.53
0.9934,0.0066	-14477.88
0.9953,0.0047	-14457.15
0.9981,0.0019	-14440.22
0.9956,0.0044	-14451.71
0.9932,0.0068	-14452.95
0.9972,0.0028	-14445.98
0.9939,0.0061	-14477.95
0.9943,0.0057	-14478.04
0.9984,0.0016	-14433.97
0.9957,0.0043	-14440.78
0.9927,0.0073	-14502.45
0.9971,0.0029	-14434.27
0.9947,0.0053	-14452.04
0.9954,0.0046	-14457.14
0.9982,0.0018	-14440.24
0.9953,0.0047	-14451.79
0.9920,0.0080	-14458.73
0.9972,0.0028	-14440.11
0.9949,0.0051	-14462.49
0.9947,0.0053	-14472.97
0.9979,0.0021	-14470.85
0.9956,0.0044	-14484.26
0.9886,0.0114	-14510.84
0.9964,0.0036	-14446.00
0.9961,0.0039	-14462.71
0.9952,0.0048	-14451.81
0.9981,0.0019	-14452.81
0.9947,0.0053	-14446.78
0.9916,0.0084	-14511.50
0.9972,0.0028	-14445.97
0.9962,0.0038	-14462.74
0.9952,0.0048	-14473.18
0.9984,0.0016	-14440.38
0.9943,0.0057	-14457.39
0.9930,0.0070	-14448.16
0.9973,0.0027	-14451.89
0.9961,0.0039	-14446.07
0.9951,0.0049	-14446.57
0.9987,0.0013	-14440.81
0.9939,0.0061	-14483.03
0.9946,0.0054	-14457.29
0.9964,0.0036	-14434.73
0.9961,0.0039	-14440.53
0.9956,0.0044	-14457.13
0.9986,0.0014	-14434.05
0.9935,0.0065	-14462.80
0.9941,0.0059	-14462.61
0.9970,0.0030	-14457.54
0.9965,0.0035	-14462.96
0.9955,0.0045	-14467.92
0.9982,0.0018	-14446.58
0.9936,0.0064	-14467.81
0.9939,0.0061	-14467.76
0.9965,0.0035	-14440.32
0.9961,0.0039	-14451.63
0.9961,0.0039	-14440.55
0.9976,0.0024	-14434.03
0.9927,0.0073	-14482.81
0.9931,0.0069	-14467.93
0.9961,0.0039	-14451.63
0.9957,0.0043	-14446.22
0.9965,0.0035	-14445.98
0.9975,0.0025	-14464.00
0.9934,0.0066	-14452.78
0.9952,0.0048	-14451.83
0.9967,0.0033	-14463.12
0.9963,0.0037	-14451.62
0.9961,0.0039	-14468.24
0.9973,0.0027	-14445.99
0.9928,0.0072	-14482.81
0.9950,0.0050	-14462.49
0.9971,0.0029	-14434.26
0.9954,0.0046	-14467.88
0.9968,0.0032	-14451.69
0.9977,0.0023	-14440.08
0.9926,0.0074	-14477.91
0.9948,0.0052	-14451.99
0.9971,0.0029	-14440.11
0.9948,0.0052	-14472.99
0.9966,0.0034	-14451.65
0.9976,0.0024	-14452.13
0.9930,0.0070	-14443.18
0.9942,0.0058	-14472.88
0.9967,0.0033	-14445.95
0.9942,0.0058	-14483.14
0.9967,0.0033	-14440.24
0.9974,0.0026	-14451.97
0.9951,0.0049	-14441.27
0.9951,0.0049	-14446.56
0.9970,0.0030	-14440.14
0.9930,0.0070	-14482.83
0.9958,0.0042	-14468.06
0.9973,0.0027	-14434.18
0.9953,0.0047	-14441.11
0.9954,0.0046	-14467.89
0.9971,0.0029	-14451.82
0.9940,0.0060	-14457.55
0.9965,0.0035	-14485.57
0.9978,0.0022	-14464.53
0.9953,0.0047	-14451.80
0.9963,0.0037	-14462.80
0.9972,0.0028	-14445.97
0.9948,0.0052	-14462.50
0.9967,0.0033	-14434.50
0.9975,0.0025	-14458.08
0.9960,0.0040	-14451.63
0.9958,0.0042	-14440.74
0.9972,0.0028	-14445.98
0.9948,0.0052	-14436.21
0.9966,0.0034	-14440.29
0.9967,0.0033	-14445.95
0.9955,0.0045	-14462.52
0.9951,0.0049	-14457.18
0.9968,0.0032	-14440.19
0.9937,0.0063	-14482.96
0.9967,0.0033	-14463.07
0.9973,0.0027	-14434.20
0.9943,0.0057	-14457.42
0.9952,0.0048	-14467.84
0.9954,0.0046	-14483.98
0.9924,0.0076	-14482.81
0.9960,0.0040	-14451.63
0.9970,0.0030	-14445.95
0.9956,0.0044	-14467.96
0.9931,0.0069	-14477.87
0.9953,0.0047	-14457.15
0.9918,0.0082	-14487.66
0.9955,0.0045	-14440.95
0.9971,0.0029	-14457.65
0.9947,0.0053	-14478.19
0.9909,0.0091	-14492.44
0.9953,0.0047	-14467.85
0.9907,0.0093	-14487.79
0.9943,0.0057	-14472.89
0.9980,0.0020	-14471.10
0.9960,0.0040	-14446.13
0.9936,0.0064	-14447.60
0.9942,0.0058	-14447.14
0.9899,0.0101	-14492.58
0.9953,0.0047	-14457.15
0.9982,0.0018	-14440.24
0.9963,0.0037	-14457.22
0.9943,0.0057	-14436.71
0.9937,0.0063	-14503.24
0.9885,0.0115	-14506.39
0.9954,0.0046	-14457.14
0.9978,0.0022	-14433.99
0.9957,0.0043	-14468.00
0.9937,0.0063	-14472.85
0.9921,0.0079	-14487.66
0.9908,0.0092	-14469.07
0.9958,0.0042	-14462.60
0.9971,0.0029	-14440.13
0.9965,0.0035	-14434.67
0.9945,0.0055	-14457.33
0.9912,0.0088	-14464.11
0.9918,0.0082	-14487.66
0.9967,0.0033	-14440.24
0.9972,0.0028	-14440.10
0.9970,0.0030	-14434.36
0.9955,0.0045	-14478.76
0.9887,0.0113	-14497.42
0.9919,0.0081	-14502.07
0.9956,0.0044	-14446.28
0.9965,0.0035	-14434.69
0.9976,0.0024	-14434.06
0.9953,0.0047	-14467.86
0.9915,0.0085	-14478.14
0.9913,0.0087	-14506.64
0.9954,0.0046	-14467.88
0.9958,0.0042	-14451.66
0.9977,0.0023	-14434.02
0.9950,0.0050	-14457.19
0.9921,0.0079	-14477.98
0.9910,0.0090	-14473.61
0.9962,0.0038	-14446.04
0.9961,0.0039	-14457.17
0.9977,0.0023	-14458.29
0.9938,0.0062	-14472.85
0.9912,0.0088	-14449.93
0.9895,0.0105	-14474.48
0.9965,0.0035	-14457.27
0.9952,0.0048	-14462.49
0.9980,0.0020	-14452.55
0.9938,0.0062	-14462.69
0.9925,0.0075	-14482.81
0.9905,0.0095	-14534.31
0.9962,0.0038	-14457.18
0.9945,0.0055	-14472.92
0.9978,0.0022	-14440.10
0.9939,0.0061	-14462.66
0.9943,0.0057	-14441.94
0.9902,0.0098	-14487.92
0.9965,0.0035	-14479.89
0.9949,0.0051	-14451.96
0.9981,0.0019	-14440.23
0.9947,0.0053	-14457.28
0.9944,0.0056	-14472.91
0.9884,0.0116	-14510.85
0.9962,0.0038	-14446.04
0.9950,0.0050	-14488.95
0.9982,0.0018	-14440.27
0.9939,0.0061	-14447.42
0.9935,0.0065	-14457.78
0.9890,0.0110	-14474.83
0.9955,0.0045	-14484.12
0.9956,0.0044	-14446.28
0.9978,0.0022	-14452.36
0.9939,0.0061	-14483.05
0.9937,0.0063	-14452.61
0.9892,0.0108	-14488.24
0.9957,0.0043	-14462.57
0.9963,0.0037	-14446.02
0.9974,0.0026	-14440.07
0.9942,0.0058	-14483.18
0.9933,0.0067	-14477.88
0.9891,0.0109	-14474.75
0.9945,0.0055	-14441.71
0.9963,0.0037	-14446.02
0.9973,0.0027	-14445.99
0.9935,0.0065	-14457.78
0.9921,0.0079	-14506.99
0.9857,0.0143	-14502.99
0.9930,0.0070	-14497.69
0.9964,0.0036	-14440.36
0.9977,0.0023	-14434.01
0.9925,0.0075	-14502.32
0.9918,0.0082	-14487.65
0.9857,0.0143	-14524.14
0.9946,0.0054	-14467.73
0.9960,0.0040	-14440.57
0.9973,0.0027	-14440.09
0.9916,0.0084	-14482.90
0.9928,0.0072	-14458.17
0.9816,0.0184	-14541.39
0.9950,0.0050	-14462.49
0.9957,0.0043	-14457.13
0.9973,0.0027	-14451.90
0.9924,0.0076	-14487.68
0.9920,0.0080	-14482.84
0.9822,0.0178	-14533.21
0.9959,0.0041	-14462.65
0.9964,0.0036	-14451.62
0.9974,0.0026	-14440.08
0.9926,0.0074	-14463.19
0.9929,0.0071	-14487.76
0.9857,0.0143	-14545.29
0.9962,0.0038	-14440.47
0.9965,0.0035	-14434.64
0.9974,0.0026	-14463.81
0.9916,0.0084	-14487.66
0.9923,0.0077	-14473.09
0.9872,0.0128	-14502.34
0.9962,0.0038	-14446.04
0.9951,0.0049	-14446.54
0.9969,0.0031	-14469.01
0.9902,0.0098	-14501.76
0.9934,0.0066	-14452.84
0.9900,0.0100	-14483.37
0.9962,0.0038	-14446.05
0.9949,0.0051	-14451.94
0.9970,0.0030	-14434.32
0.9916,0.0084	-14463.79
0.9943,0.0057	-14478.05
0.9909,0.0091	-14483.06
0.9962,0.0038	-14462.74
0.9946,0.0054	-14504.26
0.9968,0.0032	-14457.43
0.9907,0.0093	-14487.80
0.9931,0.0069	-14487.80
0.9908,0.0092	-14506.50
0.9954,0.0046	-14457.13
0.9945,0.0055	-14467.72
0.9972,0.0028	-14440.10
0.9911,0.0089	-14501.86
0.9927,0.0073	-14477.90
0.9894,0.0106	-14470.07
0.9961,0.0039	-14440.53
0.9937,0.0063	-14477.91
0.9966,0.0034	-14451.64
0.9912,0.0088	-14482.99
0.9917,0.0083	-14497.23
0.9891,0.0109	-14501.83
0.9965,0.0035	-14457.27
0.9949,0.0051	-14451.93
0.9961,0.0039	-14446.07
0.9923,0.0077	-14463.38
0.9925,0.0075	-14458.36
0.9896,0.0104	-14483.54
0.9964,0.0036	-14451.62
0.9961,0.0039	-14473.77
0.9958,0.0042	-14446.20
0.9933,0.0067	-14487.87
0.9915,0.0085	-14506.72
0.9894,0.0106	-14501.79
0.9966,0.0034	-14445.96
0.9962,0.0038	-14446.04
0.9957,0.0043	-14473.47
0.9929,0.0071	-14463.07
0.9918,0.0082	-14478.07
0.9910,0.0090	-14464.23
0.9971,0.0029	-14445.96
0.9967,0.0033	-14445.96
0.9954,0.0046	-14457.14
0.9929,0.0071	-14507.53
0.9920,0.0080	-14468.37
0.9893,0.0107	-14483.69
0.9970,0.0030	-14457.60
0.9966,0.0034	-14440.30
0.9957,0.0043	-14468.01
0.9929,0.0071	-14472.94
0.9916,0.0084	-14497.20
0.9888,0.0112	-14483.97
0.9964,0.0036	-14451.62
0.9963,0.0037	-14440.41
0.9962,0.0038	-14446.05
0.9937,0.0063	-14457.68
0.9917,0.0083	-14449.43
0.9871,0.0129	-14502.37
0.9963,0.0037	-14462.83
0.9969,0.0031	-14468.99
0.9961,0.0039	-14468.29
0.9924,0.0076	-14477.93
0.9919,0.0081	-14473.21
0.9880,0.0120	-14510.89
0.9954,0.0046	-14451.75
0.9971,0.0029	-14440.11
0.9963,0.0037	-14434.85
0.9925,0.0075	-14468.14
0.9926,0.0074	-14468.11
0.9886,0.0114	-14501.93
0.9950,0.0050	-14446.60
0.9970,0.0030	-14440.14
0.9967,0.0033	-14451.68
0.9914,0.0086	-14506.65
0.9919,0.0081	-14468.42
0.9886,0.0114	-14470.69
0.9938,0.0062	-14477.93
0.9972,0.0028	-14434.24
0.9967,0.0033	-14445.96
0.9916,0.0084	-14468.59
0.9914,0.0086	-14468.68
0.9873,0.0127	-14528.41
0.9943,0.0057	-14472.88
0.9973,0.0027	-14434.17
0.9966,0.0034	-14468.74
0.9911,0.0089	-14506.58
0.9912,0.0088	-14468.79
0.9863,0.0137	-14498.43
0.9937,0.0063	-14482.98
0.9972,0.0028	-14440.11
0.9958,0.0042	-14462.60
0.9887,0.0113	-14470.63
0.9913,0.0087	-14482.95
0.9877,0.0123	-14524.08
0.9938,0.0062	-14452.53
0.9971,0.0029	-14457.61
0.9950,0.0050	-14467.78
0.9883,0.0117	-14501.99
0.9914,0.0086	-14511.39
0.9849,0.0151	-14490.84
0.9936,0.0064	-14467.81
0.9970,0.0030	-14445.95
0.9948,0.0052	-14457.25
0.9890,0.0110	-14470.38
0.9915,0.0085	-14468.65
0.9845,0.0155	-14520.24
0.9911,0.0089	-14487.71
0.9965,0.0035	-14445.98
0.9948,0.0052	-14462.50
0.9892,0.0108	-14519.87
0.9909,0.0091	-14478.37
0.9823,0.0177	-14505.05
0.9892,0.0108	-14483.73
0.9971,0.0029	-14451.78
0.9938,0.0062	-14462.68
0.9883,0.0117	-14506.42
0.9920,0.0080	-14487.65
0.9821,0.0179	-14525.26
0.9889,0.0111	-14488.38
0.9971,0.0029	-14457.62
0.9926,0.0074	-14473.01
0.9902,0.0098	-14469.43
0.9917,0.0083	-14487.66
0.9856,0.0144	-14532.60
0.9876,0.0124	-14489.04
0.9966,0.0034	-14445.96
0.9929,0.0071	-14497.67
0.9897,0.0103	-14474.38
0.9930,0.0070	-14453.08
0.9856,0.0144	-14524.15
0.9896,0.0104	-14501.78
0.9966,0.0034	-14451.64
0.9919,0.0081	-14463.62
0.9900,0.0100	-14497.16
0.9918,0.0082	-14482.86
0.9878,0.0122	-14484.56
0.9874,0.0126	-14489.17
0.9966,0.0034	-14434.61
0.9927,0.0073	-14477.90
0.9909,0.0091	-14478.38
0.9914,0.0086	-14468.66
0.9894,0.0106	-14492.73
0.9863,0.0137	-14519.79
0.9968,0.0032	-14445.95
0.9923,0.0077	-14497.40
0.9894,0.0106	-14524.49
0.9926,0.0074	-14477.91
0.9873,0.0127	-14502.29
0.9851,0.0149	-14528.43
0.9970,0.0030	-14440.15
0.9934,0.0066	-14467.85
0.9878,0.0122	-14493.32
0.9930,0.0070	-14472.93
0.9880,0.0120	-14484.42
0.9860,0.0140	-14511.35
0.9971,0.0029	-14457.68
0.9930,0.0070	-14463.03
0.9887,0.0113	-14497.41
0.9934,0.0066	-14472.87
0.9884,0.0116	-14497.53
0.9881,0.0119	-14502.03
0.9968,0.0032	-14451.69
0.9958,0.0042	-14440.75
0.9881,0.0119	-14497.60
0.9931,0.0069	-14472.91
0.9871,0.0129	-14541.41
0.9894,0.0106	-14483.62
0.9971,0.0029	-14434.27
0.9949,0.0051	-14457.22
0.9898,0.0102	-14506.34
0.9939,0.0061	-14457.56
0.9875,0.0125	-14515.32
0.9898,0.0102	-14478.89
0.9976,0.0024	-14440.07
0.9947,0.0053	-14436.31
0.9890,0.0110	-14488.37
0.9913,0.0087	-14473.49
0.9879,0.0121	-14528.50
0.9883,0.0117	-14501.99
0.9975,0.0025	-14434.08
0.9945,0.0055	-14472.92
0.9900,0.0100	-14474.18
0.9934,0.0066	-14472.87
0.9907,0.0093	-14459.74
0.9879,0.0121	-14488.86
0.9970,0.0030	-14445.95
0.9941,0.0059	-14447.23
0.9900,0.0100	-14501.76
0.9933,0.0067	-14472.87
0.9911,0.0089	-14473.59
0.9919,0.0081	-14492.46
0.9968,0.0032	-14445.95
0.9935,0.0065	-14487.94
0.9900,0.0100	-14474.21
0.9940,0.0060	-14462.65
0.9896,0.0104	-14474.41
0.9923,0.0077	-14473.10
0.9970,0.0030	-14445.95
0.9938,0.0062	-14488.10
0.9902,0.0098	-14483.31
0.9940,0.0060	-14462.63
0.9901,0.0099	-14478.74
0.9903,0.0097	-14492.51
0.9965,0.0035	-14457.29
0.9930,0.0070	-14472.92
0.9900,0.0100	-14492.56
0.9935,0.0065	-14452.77
0.9899,0.0101	-14492.58
0.9908,0.0092	-14473.75
0.9956,0.0044	-14446.31
0.9900,0.0100	-14487.96
0.9908,0.0092	-14492.45
0.9906,0.0094	-14469.15
0.9878,0.0122	-14480.12
0.9920,0.0080	-14468.38
0.9969,0.0031	-14451.70
0.9893,0.0107	-14474.62
0.9904,0.0096	-14520.31
0.9900,0.0100	-14474.18
0.9900,0.0100	-14483.37
0.9925,0.0075	-14473.02
0.9972,0.0028	-14445.98
0.9898,0.0102	-14524.66
0.9900,0.0100	-14506.36
0.9919,0.0081	-14463.63
0.9883,0.0117	-14510.85
0.9930,0.0070	-14477.88
0.9975,0.0025	-14452.08
0.9892,0.0108	-14515.37
0.9903,0.0097	-14524.91
0.9912,0.0088	-14482.97
0.9873,0.0127	-14524.05
0.9926,0.0074	-14473.01
0.9976,0.0024	-14446.10
0.9882,0.0118	-14493.14
0.9891,0.0109	-14501.83
0.9908,0.0092	-14487.77
0.9870,0.0130	-14502.38
0.9943,0.0057	-14467.72
0.9976,0.0024	-14446.10
0.9902,0.0098	-14492.54
0.9900,0.0100	-14506.36
0.9914,0.0086	-14463.95
0.9854,0.0146	-14524.18
0.9944,0.0056	-14457.36
0.9976,0.0024	-14434.04
0.9906,0.0094	-14459.90
0.9871,0.0129	-14502.34
0.9921,0.0079	-14473.17
0.9845,0.0155	-14503.64
0.9941,0.0059	-14462.60
0.9971,0.0029	-14445.96
0.9891,0.0109	-14501.82
0.9861,0.0139	-14502.77
0.9902,0.0098	-14497.14
0.9876,0.0124	-14515.32
0.9941,0.0059	-14508.76
0.9978,0.0022	-14446.25
0.9894,0.0106	-14474.57
0.9845,0.0155	-14524.39
0.9927,0.0073	-14472.99
0.9872,0.0128	-14541.42
0.9940,0.0060	-14472.86
0.9978,0.0022	-14433.97
0.9878,0.0122	-14488.96
0.9811,0.0189	-14525.72
0.9920,0.0080	-14449.14
0.9879,0.0121	-14493.30
0.9927,0.0073	-14477.90
0.9976,0.0024	-14434.06
0.9882,0.0118	-14497.59
0.9799,0.0201	-14522.50
0.9893,0.0107	-14492.76
0.9872,0.0128	-14489.31
0.9924,0.0076	-14492.56
0.9979,0.0021	-14446.31
0.9873,0.0127	-14532.75
0.9803,0.0197	-14522.23
0.9888,0.0112	-14533.23
0.9873,0.0127	-14528.41
0.9924,0.0076	-14468.19
0.9982,0.0018	-14427.63
0.9910,0.0090	-14501.84
0.9798,0.0202	-14545.86
0.9890,0.0110	-14474.84
0.9874,0.0126	-14506.61
0.9927,0.0073	-14477.89
0.9985,0.0015	-14434.00
0.9899,0.0101	-14497.17
0.9794,0.0206	-14557.58
0.9892,0.0108	-14497.30
0.9877,0.0123	-14506.53
0.9917,0.0083	-14454.20
0.9984,0.0016	-14440.40
0.9919,0.0081	-14478.05
0.9791,0.0209	-14549.93
0.9913,0.0087	-14492.43
0.9908,0.0092	-14506.49
0.9913,0.0087	-14478.23
0.9980,0.0020	-14452.66
0.9912,0.0088	-14511.34
0.9803,0.0197	-14557.41
0.9918,0.0082	-14478.06
0.9894,0.0106	-14515.41
0.9928,0.0072	-14458.16
0.9982,0.0018	-14433.95
0.9884,0.0116	-14497.52
0.9852,0.0148	-14515.84
0.9926,0.0074	-14477.90
0.9910,0.0090	-14473.63
0.9916,0.0084	-14487.66
0.9981,0.0019	-14427.70
0.9871,0.0129	-14519.71
0.9830,0.0170	-14528.94
0.9925,0.0075	-14477.92
0.9913,0.0087	-14482.96
0.9912,0.0088	-14464.08
0.9987,0.0013	-14453.97
0.9891,0.0109	-14474.80
0.9790,0.0210	-14542.28
0.9923,0.0077	-14468.22
0.9915,0.0085	-14501.95
0.9912,0.0088	-14468.84
0.9984,0.0016	-14433.97
0.9884,0.0116	-14524.20
0.9795,0.0205	-14565.28
0.9935,0.0065	-14462.81
0.9919,0.0081	-14497.26
0.9909,0.0091	-14492.44
0.9987,0.0013	-14427.48
0.9875,0.0125	-14532.80
0.9808,0.0192	-14498.38
0.9932,0.0068	-14492.81
0.9917,0.0083	-14463.72
0.9878,0.0122	-14502.12
0.9989,0.0011	-14434.30
0.9888,0.0112	-14483.97
0.9843,0.0157	-14561.69
0.9926,0.0074	-14477.90
0.9905,0.0095	-14506.41
0.9853,0.0147	-14536.82
0.9989,0.0011	-14427.49
0.9891,0.0109	-14492.80
0.9856,0.0144	-14511.48
0.9932,0.0068	-14477.87
0.9920,0.0080	-14487.65
0.9843,0.0157	-14507.90
0.9987,0.0013	-14427.48
0.9907,0.0093	-14483.12
0.9880,0.0120	-14480.02
0.9927,0.0073	-14477.90
0.9919,0.0081	-14473.22
0.9865,0.0135	-14494.05
0.9988,0.0012	-14434.21
0.9929,0.0071	-14463.05
0.9885,0.0115	-14493.04
0.9937,0.0063	-14467.79
0.9894,0.0106	-14465.48
0.9859,0.0141	-14528.36
0.9986,0.0014	-14447.21
0.9926,0.0074	-14468.09
0.9870,0.0130	-14506.72
0.9930,0.0070	-14492.73
0.9909,0.0091	-14464.31
0.9884,0.0116	-14466.44
0.9985,0.0015	-14434.01
0.9939,0.0061	-14447.42
0.9852,0.0148	-14524.22
0.9924,0.0076	-14468.20
0.9910,0.0090	-14487.73
0.9878,0.0122	-14510.91
0.9985,0.0015	-14427.50
0.9929,0.0071	-14453.17
0.9826,0.0174	-14533.08
0.9929,0.0071	-14482.82
0.9915,0.0085	-14478.15
0.9901,0.0099	-14501.76
0.9984,0.0016	-14433.97
0.9918,0.0082	-14502.03
0.9841,0.0159	-14507.98
0.9922,0.0078	-14468.30
0.9924,0.0076	-14521.76
0.9899,0.0101	-14492.60
0.9989,0.0011	-14441.03
0.9910,0.0090	-14487.73
0.9805,0.0195	-14557.39
0.9927,0.0073	-14482.81
0.9931,0.0069	-14467.93
0.9890,0.0110	-14474.85
0.9991,0.0009	-14427.56
0.9919,0.0081	-14478.05
0.9805,0.0195	-14522.15
0.9913,0.0087	-14463.99
0.9942,0.0058	-14498.60
0.9872,0.0128	-14524.05
0.9993,0.0007	-14442.09
0.9940,0.0060	-14472.85
0.9777,0.0223	-14561.81
0.9920,0.0080	-14468.36
0.9943,0.0057	-14472.88
0.9894,0.0106	-14506.33
0.9992,0.0008	-14427.69
0.9949,0.0051	-14467.76
0.9779,0.0221	-14561.74
0.9927,0.0073	-14458.23
0.9934,0.0066	-14447.82
0.9902,0.0098	-14478.67
0.9993,0.0007	-14435.15
0.9941,0.0059	-14462.60
0.9784,0.0216	-14569.26
0.9921,0.0079	-14458.63
0.9934,0.0066	-14472.86
0.9894,0.0106	-14497.25
0.9994,0.0006	-14435.34
0.9952,0.0048	-14462.49
0.9792,0.0208	-14534.53
0.9913,0.0087	-14501.90
0.9943,0.0057	-14462.57
0.9881,0.0119	-14488.78
0.9993,0.0007	-14427.80
0.9947,0.0053	-14478.22
0.9786,0.0214	-14538.64
0.9934,0.0066	-14467.84
0.9923,0.0077	-14477.95
0.9863,0.0137	-14485.60
0.9992,0.0008	-14442.07
0.9943,0.0057	-14472.89
0.9791,0.0209	-14557.64
0.9917,0.0083	-14478.09
0.9929,0.0071	-14472.95
0.9829,0.0171	-14537.07
0.9990,0.0010	-14427.53
0.9948,0.0052	-14457.23
0.9793,0.0207	-14561.44
0.9915,0.0085	-14501.96
0.9927,0.0073	-14443.54
0.9826,0.0174	-14504.89
0.9991,0.0009	-14427.56
0.9950,0.0050	-14457.19
0.9769,0.0231	-14539.57
0.9878,0.0122	-14510.91
0.9932,0.0068	-14472.90
0.9839,0.0161	-14520.45
0.9991,0.0009	-14427.56
0.9946,0.0054	-14472.94
0.9799,0.0201	-14541.92
0.9909,0.0091	-14511.20
0.9936,0.0064	-14452.66
0.9876,0.0124	-14497.81
0.9991,0.0009	-14434.51
0.9958,0.0042	-14446.20
0.9813,0.0187	-14509.80
0.9912,0.0088	-14468.79
0.9937,0.0063	-14457.67
0.9863,0.0137	-14528.35
0.9989,0.0011	-14461.44
0.9963,0.0037	-14446.02
0.9845,0.0155	-14511.91
0.9915,0.0085	-14482.91
0.9939,0.0061	-14462.67
0.9859,0.0141	-14532.60
0.9988,0.0012	-14434.20
0.9955,0.0045	-14457.13
0.9866,0.0134	-14498.24
0.9891,0.0109	-14483.77
0.9943,0.0057	-14452.24
0.9859,0.0141	-14515.63
0.9991,0.0009	-14434.53
0.9955,0.0045	-14467.92
0.9888,0.0112	-14470.55
0.9861,0.0139	-14532.61
0.9942,0.0058	-14462.59
0.9869,0.0131	-14519.73
0.9991,0.0009	-14427.57
0.9957,0.0043	-14495.18
0.9886,0.0114	-14493.00
0.9857,0.0143	-14515.67
0.9937,0.0063	-14452.60
0.9882,0.0118	-14541.85
0.9988,0.0012	-14434.21
0.9953,0.0047	-14441.11
0.9893,0.0107	-14510.86
0.9807,0.0193	-14525.91
0.9944,0.0056	-14478.07
0.9890,0.0110	-14483.84
0.9987,0.0013	-14447.42
0.9948,0.0052	-14451.97
0.9900,0.0100	-14474.18
0.9839,0.0161	-14520.46
0.9941,0.0059	-14462.60
0.9888,0.0112	-14474.98
0.9983,0.0017	-14433.95
0.9957,0.0043	-14457.13
0.9879,0.0121	-14515.30
0.9864,0.0136	-14532.63
0.9927,0.0073	-14463.15
0.9911,0.0089	-14473.58
0.9987,0.0013	-14434.10
0.9947,0.0053	-14467.74
0.9863,0.0137	-14511.23
0.9861,0.0139	-14541.13
0.9925,0.0075	-14468.16
0.9917,0.0083	-14478.09
0.9983,0.0017	-14433.96
0.9935,0.0065	-14487.95
0.9899,0.0101	-14501.76
0.9867,0.0133	-14489.58
0.9900,0.0100	-14506.35
0.9914,0.0086	-14497.17
0.9980,0.0020	-14465.10
0.9938,0.0062	-14483.01
0.9908,0.0092	-14487.76
0.9870,0.0130	-14489.43
0.9895,0.0105	-14479.05
0.9935,0.0065	-14492.96
0.9980,0.0020	-14452.54
0.9945,0.0055	-14446.93
0.9918,0.0082	-14492.45
0.9866,0.0134	-14532.66
0.9903,0.0097	-14497.14
0.9947,0.0053	-14478.19
0.9980,0.0020	-14446.41
0.9942,0.0058	-14462.58
0.9904,0.0096	-14506.40
0.9876,0.0124	-14515.32
0.9911,0.0089	-14478.31
0.9943,0.0057	-14472.88
0.9979,0.0021	-14446.29
0.9934,0.0066	-14497.91
0.9887,0.0113	-14479.52
0.9903,0.0097	-14501.76
0.9906,0.0094	-14473.85
0.9937,0.0063	-14482.96
0.9978,0.0022	-14446.19
0.9934,0.0066	-14497.96
0.9894,0.0106	-14470.02
0.9906,0.0094	-14501.79
0.9902,0.0098	-14497.14
0.9932,0.0068	-14487.83
0.9981,0.0019	-14446.49
0.9932,0.0068	-14448.00
0.9901,0.0099	-14510.96
0.9911,0.0089	-14539.61
0.9902,0.0098	-14478.69
0.9927,0.0073	-14463.13
0.9980,0.0020	-14458.76
0.9944,0.0056	-14462.55
0.9889,0.0111	-14497.38
0.9896,0.0104	-14497.21
0.9895,0.0105	-14479.06
0.9946,0.0054	-14457.30
0.9977,0.0023	-14446.17
0.9953,0.0047	-14462.50
0.9902,0.0098	-14474.09
0.9907,0.0093	-14478.44
0.9896,0.0104	-14488.09
0.9940,0.0060	-14467.75
0.9978,0.0022	-14433.98
0.9960,0.0040	-14446.13
0.9916,0.0084	-14478.11
0.9895,0.0105	-14501.78
0.9909,0.0091	-14487.75
0.9926,0.0074	-14482.81
0.9975,0.0025	-14440.07
0.9961,0.0039	-14484.92
0.9928,0.0072	-14472.95
0.9899,0.0101	-14492.60
0.9911,0.0089	-14483.00
0.9940,0.0060	-14452.39
0.9975,0.0025	-14440.07
0.9961,0.0039	-14462.73
0.9927,0.0073	-14497.53
0.9896,0.0104	-14479.01
0.9877,0.0123	-14502.14
0.9935,0.0065	-14477.89
0.9977,0.0023	-14434.01
0.9960,0.0040	-14462.67
0.9939,0.0061	-14452.48
0.9911,0.0089	-14468.89
0.9905,0.0095	-14492.48
0.9915,0.0085	-14473.39
0.9979,0.0021	-14464.80
0.9963,0.0037	-14446.04
0.9938,0.0062	-14452.54
0.9898,0.0102	-14488.02
0.9895,0.0105	-14488.15
0.9925,0.0075	-14458.35
0.9978,0.0022	-14427.85
0.9956,0.0044	-14467.98
0.9936,0.0064	-14482.93
0.9891,0.0109	-14501.83
0.9895,0.0105	-14510.88
0.9935,0.0065	-14467.83
0.9975,0.0025	-14446.06
0.9964,0.0036	-14474.13
0.9936,0.0064	-14493.06
0.9887,0.0113	-14524.24
0.9928,0.0072	-14482.81
0.9928,0.0072	-14468.05
0.9972,0.0028	-14445.98
0.9960,0.0040	-14457.15
0.9945,0.0055	-14441.75
0.9902,0.0098	-14506.38
0.9916,0.0084	-14482.89
0.9919,0.0081	-14473.23
0.9972,0.0028	-14457.73
0.9963,0.0037	-14451.62
0.9939,0.0061	-14483.06
0.9887,0.0113	-14506.37
0.9922,0.0078	-14468.27
0.9938,0.0062	-14477.92
0.9965,0.0035	-14462.93
0.9956,0.0044	-14462.54
0.9923,0.0077	-14492.52
0.9893,0.0107	-14483.71
0.9935,0.0065	-14482.93
0.9945,0.0055	-14472.92
0.9965,0.0035	-14451.63
0.9958,0.0042	-14462.60
0.9911,0.0089	-14482.99
0.9894,0.0106	-14474.57
0.9937,0.0063	-14452.62
0.9945,0.0055	-14478.13
0.9964,0.0036	-14446.01
0.9953,0.0047	-14462.50
0.9903,0.0097	-14497.13
0.9887,0.0113	-14497.43
0.9922,0.0078	-14458.60
0.9950,0.0050	-14451.92
0.9967,0.0033	-14440.26
0.9945,0.0055	-14457.34
0.9889,0.0111	-14501.85
0.9882,0.0118	-14506.43
0.9918,0.0082	-14473.28
0.9946,0.0054	-14457.31
0.9974,0.0026	-14446.02
0.9951,0.0049	-14446.56
0.9877,0.0123	-14506.54
0.9896,0.0104	-14497.22
0.9908,0.0092	-14487.77
0.9958,0.0042	-14446.21
0.9976,0.0024	-14452.12
0.9942,0.0058	-14472.87
0.9870,0.0130	-14502.39
0.9889,0.0111	-14479.39
0.9919,0.0081	-14473.23
0.9953,0.0047	-14451.80
0.9977,0.0023	-14434.01
0.9938,0.0062	-14467.78
0.9864,0.0136	-14519.78
0.9888,0.0112	-14492.93
0.9924,0.0076	-14458.42
0.9966,0.0034	-14434.58
0.9974,0.0026	-14446.04
0.9943,0.0057	-14467.73
0.9887,0.0113	-14484.00
0.9907,0.0093	-14469.12
0.9939,0.0061	-14457.56
0.9964,0.0036	-14451.62
0.9974,0.0026	-14446.03
0.9923,0.0077	-14477.96
0.9869,0.0131	-14506.76
0.9908,0.0092	-14487.78
0.9941,0.0059	-14467.74
0.9967,0.0033	-14440.23
0.9973,0.0027	-14451.89
0.9923,0.0077	-14473.10
0.9843,0.0157	-14491.34
0.9885,0.0115	-14501.93
0.9948,0.0052	-14441.49
0.9959,0.0041	-14468.12
0.9974,0.0026	-14440.07
0.9909,0.0091	-14487.76
0.9858,0.0142	-14502.93
0.9884,0.0116	-14510.85
0.9945,0.0055	-14452.12
0.9956,0.0044	-14440.86
0.9973,0.0027	-14440.09
0.9912,0.0088	-14478.25
0.9877,0.0123	-14493.38
0.9881,0.0119	-14502.04
0.9946,0.0054	-14446.84
0.9944,0.0056	-14447.04
0.9975,0.0025	-14428.13
0.9926,0.0074	-14482.81
0.9854,0.0146	-14482.05
0.9867,0.0133	-14511.13
0.9949,0.0051	-14451.95
0.9928,0.0072	-14477.88
0.9970,0.0030	-14445.95
0.9920,0.0080	-14487.66
0.9843,0.0157	-14536.85
0.9866,0.0134	-14498.26
0.9945,0.0055	-14446.94
0.9922,0.0078	-14473.14
0.9967,0.0033	-14445.96
0.9930,0.0070	-14458.04
0.9870,0.0130	-14524.04
0.9868,0.0132	-14528.36
0.9942,0.0058	-14493.48
0.9910,0.0090	-14464.24
0.9971,0.0029	-14440.12
0.9920,0.0080	-14458.73
0.9857,0.0143	-14524.14
0.9876,0.0124	-14475.95
0.9930,0.0070	-14463.00
0.9917,0.0083	-14468.54
0.9973,0.0027	-14451.89
0.9910,0.0090	-14497.14
0.9851,0.0149	-14503.31
0.9880,0.0120	-14502.06
0.9913,0.0087	-14492.43
0.9907,0.0093	-14506.46
0.9975,0.0025	-14452.02
0.9898,0.0102	-14497.19
0.9862,0.0138	-14494.22
0.9857,0.0143	-14490.26
0.9896,0.0104	-14492.66
0.9915,0.0085	-14463.90
0.9966,0.0034	-14445.97
0.9875,0.0125	-14484.73
0.9876,0.0124	-14489.03
0.9796,0.0204	-14534.30
0.9906,0.0094	-14469.20
0.9928,0.0072	-14492.67
0.9969,0.0031	-14463.30
0.9885,0.0115	-14501.93
0.9874,0.0126	-14493.52
0.9798,0.0202	-14549.74
0.9903,0.0097	-14492.51
0.9926,0.0074	-14492.60
0.9969,0.0031	-14434.38
0.9881,0.0119	-14510.87
0.9905,0.0095	-14497.13
0.9821,0.0179	-14513.22
0.9898,0.0102	-14488.03
0.9925,0.0075	-14492.59
0.9978,0.0022	-14446.19
0.9879,0.0121	-14493.31
0.9898,0.0102	-14478.91
0.9835,0.0165	-14500.14
0.9906,0.0094	-14459.86
0.9922,0.0078	-14453.76
0.9979,0.0021	-14440.14
0.9854,0.0146	-14490.51
0.9918,0.0082	-14478.06
0.9814,0.0186	-14553.33
0.9918,0.0082	-14492.45
0.9925,0.0075	-14477.92
0.9979,0.0021	-14433.96
0.9879,0.0121	-14502.08
0.9915,0.0085	-14506.73
0.9791,0.0209	-14523.01
0.9938,0.0062	-14457.63
0.9927,0.0073	-14468.07
0.9977,0.0023	-14440.08
0.9894,0.0106	-14456.39
0.9919,0.0081	-14453.98
0.9794,0.0206	-14542.12
0.9948,0.0052	-14436.27
0.9930,0.0070	-14472.92
0.9971,0.0029	-14451.78
0.9899,0.0101	-14469.69
0.9920,0.0080	-14463.56
0.9814,0.0186	-14525.56
0.9945,0.0055	-14452.14
0.9949,0.0051	-14446.65
0.9964,0.0036	-14451.62
0.9880,0.0120	-14497.67
0.9921,0.0079	-14487.66
0.9828,0.0172	-14524.93
0.9943,0.0057	-14447.06
0.9958,0.0042	-14462.61
0.9963,0.0037	-14446.03
0.9864,0.0136	-14498.34
0.9913,0.0087	-14520.87
0.9835,0.0165	-14491.96
0.9941,0.0059	-14472.86
0.9948,0.0052	-14436.19
0.9965,0.0035	-14457.27
0.9876,0.0124	-14489.06
0.9920,0.0080	-14487.65
0.9804,0.0196	-14537.82
0.9931,0.0069	-14467.92
0.9931,0.0069	-14467.93
0.9959,0.0041	-14446.14
0.9901,0.0099	-14469.55
0.9931,0.0069	-14467.92
0.9834,0.0166	-14516.54
0.9938,0.0062	-14467.77
0.9916,0.0084	-14473.34
0.9957,0.0043	-14457.13
0.9918,0.0082	-14482.86
0.9923,0.0077	-14468.25
0.9837,0.0163	-14541.02
0.9956,0.0044	-14489.60
0.9932,0.0068	-14487.84
0.9965,0.0035	-14468.64
0.9929,0.0071	-14468.00
0.9918,0.0082	-14473.26
0.9851,0.0149	-14520.04
0.9962,0.0038	-14446.05
0.9924,0.0076	-14473.05
0.9966,0.0034	-14462.97
0.9932,0.0068	-14472.89
0.9930,0.0070	-14448.10
0.9843,0.0157	-14512.01
0.9964,0.0036	-14445.99
0.9929,0.0071	-14502.56
0.9963,0.0037	-14451.62
0.9903,0.0097	-14473.99
0.9934,0.0066	-14467.85
0.9864,0.0136	-14511.22
0.9956,0.0044	-14462.55
0.9920,0.0080	-14453.88
0.9971,0.0029	-14440.12
0.9899,0.0101	-14520.10
0.9934,0.0066	-14472.86
0.9858,0.0142	-14498.69
0.9953,0.0047	-14441.07
0.9928,0.0072	-14477.89
0.9971,0.0029	-14434.28
0.9886,0.0114	-14497.47
0.9929,0.0071	-14482.82
0.9828,0.0172	-14537.09
0.9941,0.0059	-14483.12
0.9945,0.0055	-14478.10
0.9966,0.0034	-14445.96
0.9886,0.0114	-14506.37
0.9932,0.0068	-14467.90
0.9851,0.0149	-14511.68
0.9928,0.0072	-14477.88
0.9956,0.0044	-14457.13
0.9967,0.0033	-14468.75
0.9907,0.0093	-14487.80
0.9947,0.0053	-14462.50
0.9878,0.0122	-14519.70
0.9926,0.0074	-14473.01
0.9961,0.0039	-14457.17
0.9968,0.0032	-14457.41
0.9907,0.0093	-14506.47
0.9939,0.0061	-14462.67
0.9898,0.0102	-14483.48
0.9899,0.0101	-14492.60
0.9963,0.0037	-14462.82
0.9959,0.0041	-14468.12
0.9907,0.0093	-14455.10
0.9937,0.0063	-14462.72
0.9897,0.0103	-14488.09
0.9911,0.0089	-14482.99
0.9961,0.0039	-14440.56
0.9961,0.0039	-14440.52
0.9916,0.0084	-14482.90
0.9934,0.0066	-14472.87
0.9894,0.0106	-14470.05
0.9896,0.0104	-14501.78
0.9959,0.0041	-14468.14
0.9974,0.0026	-14451.95
0.9933,0.0067	-14452.90
0.9934,0.0066	-14482.89
0.9884,0.0116	-14488.62
0.9906,0.0094	-14473.84
0.9968,0.0032	-14451.68
0.9972,0.0028	-14463.54
0.9947,0.0053	-14457.27
0.9948,0.0052	-14457.24
0.9891,0.0109	-14497.31
0.9883,0.0117	-14479.79
0.9972,0.0028	-14440.09
0.9977,0.0023	-14440.08
0.9948,0.0052	-14446.71
0.9957,0.0043	-14451.67
0.9882,0.0118	-14546.26
0.9888,0.0112	-14510.84
0.9974,0.0026	-14440.08
0.9975,0.0025	-14428.11
0.9937,0.0063	-14462.71
0.9962,0.0038	-14434.89
0.9889,0.0111	-14497.38
0.9891,0.0109	-14492.81
0.9970,0.0030	-14451.74
0.9971,0.0029	-14428.40
0.9928,0.0072	-14492.67
0.9949,0.0051	-14473.04
0.9879,0.0121	-14484.48
0.9886,0.0114	-14519.76
0.9978,0.0022	-14433.98
0.9976,0.0024	-14434.05
0.9931,0.0069	-14497.75
0.9951,0.0049	-14446.57
0.9879,0.0121	-14510.90
0.9894,0.0106	-14510.87
0.9974,0.0026	-14446.03
0.9981,0.0019	-14446.43
0.9934,0.0066	-14477.88
0.9957,0.0043	-14451.67
0.9893,0.0107	-14506.33
0.9902,0.0098	-14492.52
0.9973,0.0027	-14428.25
0.9981,0.0019	-14452.81
0.9910,0.0090	-14492.43
0.9959,0.0041	-14440.67
0.9928,0.0072	-14458.15
0.9885,0.0115	-14501.93
0.9970,0.0030	-14445.95
0.9981,0.0019	-14446.43
0.9908,0.0092	-14487.77
0.9947,0.0053	-14462.50
0.9923,0.0077	-14468.25
0.9896,0.0104	-14492.65
0.9968,0.0032	-14440.21
0.9985,0.0015	-14434.01
0.9919,0.0081	-14478.05
0.9928,0.0072	-14468.03
0.9930,0.0070	-14487.79
0.9899,0.0101	-14483.43
0.9962,0.0038	-14451.62
0.9982,0.0018	-14427.63
0.9902,0.0098	-14487.91
0.9907,0.0093	-14478.45
0.9930,0.0070	-14458.04
0.9914,0.0086	-14497.18
0.9957,0.0043	-14478.90
0.9980,0.0020	-14433.95
0.9893,0.0107	-14470.11
0.9923,0.0077	-14463.39
0.9915,0.0085	-14468.65
0.9942,0.0058	-14462.59
0.9963,0.0037	-14451.62
0.9979,0.0021	-14433.96
0.9853,0.0147	-14486.33
0.9917,0.0083	-14487.66
0.9909,0.0091	-14454.89
0.9934,0.0066	-14472.87
0.9950,0.0050	-14457.19
0.9977,0.0023	-14452.18
0.9841,0.0159	-14524.49
0.9907,0.0093	-14483.12
0.9898,0.0102	-14510.91
0.9936,0.0064	-14462.76
0.9949,0.0051	-14446.70
0.9975,0.0025	-14440.07
0.9841,0.0159	-14499.75
0.9928,0.0072	-14497.58
0.9900,0.0100	-14474.21
0.9941,0.0059	-14483.11
0.9943,0.0057	-14488.39
0.9977,0.0023	-14446.15
0.9834,0.0166	-14524.72
0.9917,0.0083	-14482.88
0.9897,0.0103	-14510.90
0.9939,0.0061	-14452.46
0.9950,0.0050	-14494.23
0.9977,0.0023	-14440.09
0.9866,0.0134	-14485.34
0.9921,0.0079	-14482.82
0.9896,0.0104	-14506.33
0.9949,0.0051	-14473.04
0.9949,0.0051	-14436.08
0.9975,0.0025	-14446.04
0.9902,0.0098	-14515.61
0.9921,0.0079	-14453.80
0.9890,0.0110	-14488.34
0.9956,0.0044	-14478.80
0.9951,0.0049	-14457.18
0.9976,0.0024	-14440.07
0.9916,0.0084	-14497.21
0.9918,0.0082	-14492.45
0.9883,0.0117	-14484.26
0.9959,0.0041	-14440.64
0.9949,0.0051	-14451.93
0.9967,0.0033	-14451.68
0.9914,0.0086	-14497.18
0.9900,0.0100	-14501.76
0.9880,0.0120	-14537.34
0.9953,0.0047	-14446.44
0.9947,0.0053	-14478.22
0.9961,0.0039	-14451.63
0.9937,0.0063	-14457.65
0.9898,0.0102	-14497.19
0.9889,0.0111	-14506.35
0.9949,0.0051	-14457.21
0.9958,0.0042	-14462.58
0.9965,0.0035	-14468.54
0.9938,0.0062	-14457.63
0.9885,0.0115	-14515.30
0.9869,0.0131	-14498.12
0.9954,0.0046	-14462.52
0.9951,0.0049	-14457.18
0.9966,0.0034	-14445.97
0.9928,0.0072	-14463.10
0.9882,0.0118	-14488.71
0.9892,0.0108	-14492.77
0.9961,0.0039	-14440.55
0.9962,0.0038	-14440.48
0.9968,0.0032	-14457.41
0.9942,0.0058	-14478.02
0.9873,0.0127	-14510.99
0.9895,0.0105	-14470.00
0.9950,0.0050	-14457.20
0.9953,0.0047	-14462.50
0.9967,0.0033	-14457.39
0.9950,0.0050	-14462.49
0.9891,0.0109	-14492.83
0.9894,0.0106	-14501.79
0.9958,0.0042	-14468.07
0.9940,0.0060	-14483.09
0.9965,0.0035	-14445.97
0.9941,0.0059	-14462.62
0.9886,0.0114	-14475.13
0.9907,0.0093	-14487.80
0.9962,0.0038	-14429.29
0.9931,0.0069	-14462.97
0.9963,0.0037	-14440.42
0.9939,0.0061	-14498.30
0.9898,0.0102	-14456.05
0.9909,0.0091	-14473.68
0.9966,0.0034	-14440.27
0.9942,0.0058	-14472.87
0.9964,0.0036	-14451.62
0.9938,0.0062	-14457.62
0.9892,0.0108	-14492.78
0.9944,0.0056	-14446.99
0.9966,0.0034	-14457.34
0.9945,0.0055	-14446.92
0.9965,0.0035	-14462.94
0.9950,0.0050	-14451.92
0.9873,0.0127	-14510.99
0.9929,0.0071	-14497.62
0.9969,0.0031	-14451.73
0.9951,0.0049	-14446.56
0.9962,0.0038	-14462.76
0.9953,0.0047	-14462.50
0.9903,0.0097	-14474.01
0.9941,0.0059	-14472.86
0.9968,0.0032	-14440.20
0.9943,0.0057	-14478.04
0.9965,0.0035	-14451.64
0.9949,0.0051	-14451.94
0.9901,0.0099	-14469.51
0.9935,0.0065	-14472.86
0.9969,0.0031	-14428.60
0.9932,0.0068	-14472.88
0.9966,0.0034	-14463.03
0.9953,0.0047	-14457.14
0.9910,0.0090	-14497.14
0.9943,0.0057	-14472.88
0.9974,0.0026	-14428.15
0.9932,0.0068	-14477.87
0.9966,0.0034	-14434.61
0.9964,0.0036	-14446.01
0.9895,0.0105	-14488.16
0.9956,0.0044	-14446.27
0.9971,0.0029	-14463.47
0.9935,0.0065	-14457.79
0.9971,0.0029	-14445.96
0.9965,0.0035	-14451.63
0.9923,0.0077	-14468.24
0.9949,0.0051	-14467.76
0.9970,0.0030	-14457.58
0.9937,0.0063	-14462.72
0.9970,0.0030	-14440.15
0.9961,0.0039	-14440.54
0.9935,0.0065	-14452.76
0.9954,0.0046	-14457.14
0.9975,0.0025	-14452.02
0.9954,0.0046	-14473.25
0.9972,0.0028	-14428.32
0.9947,0.0053	-14436.36
0.9933,0.0067	-14452.85
0.9950,0.0050	-14478.39
0.9979,0.0021	-14440.13
0.9958,0.0042	-14440.71
0.9977,0.0023	-14440.09
0.9937,0.0063	-14462.73
0.9932,0.0068	-14462.90
0.9947,0.0053	-14483.47
0.9981,0.0019	-14427.70
0.9960,0.0040	-14440.57
0.9975,0.0025	-14457.99
0.9950,0.0050	-14441.31
0.9943,0.0057	-14452.24
0.9944,0.0056	-14457.36
0.9976,0.0024	-14464.23
0.9953,0.0047	-14451.78
0.9963,0.0037	-14462.84
0.9955,0.0045	-14451.73
0.9948,0.0052	-14472.99
0.9949,0.0051	-14446.67
0.9972,0.0028	-14451.86
0.9960,0.0040	-14446.12
0.9968,0.0032	-14457.43
0.9949,0.0051	-14457.23
0.9954,0.0046	-14473.25
0.9948,0.0052	-14462.49
0.9972,0.0028	-14440.10
0.9952,0.0048	-14467.83
0.9974,0.0026	-14451.96
0.9943,0.0057	-14472.89
0.9956,0.0044	-14473.42
0.9948,0.0052	-14451.98
0.9972,0.0028	-14445.98
0.9946,0.0054	-14467.73
0.9976,0.0024	-14458.20
0.9934,0.0066	-14462.84
0.9949,0.0051	-14467.76
0.9930,0.0070	-14463.00
0.9976,0.0024	-14427.98
0.9948,0.0052	-14483.54
0.9974,0.0026	-14446.02
0.9931,0.0069	-14462.95
0.9949,0.0051	-14451.93
0.9929,0.0071	-14463.04
0.9975,0.0025	-14446.05
0.9946,0.0054	-14436.46
0.9971,0.0029	-14434.29
0.9940,0.0060	-14442.23
0.9949,0.0051	-14446.64
0.9930,0.0070	-14467.95
0.9970,0.0030	-14445.95
0.9951,0.0049	-14451.88
0.9966,0.0034	-14457.31
0.9934,0.0066	-14452.79
0.9948,0.0052	-14483.52
0.9934,0.0066	-14477.88
0.9971,0.0029	-14440.12
0.9948,0.0052	-14446.72
0.9972,0.0028	-14440.10
0.9938,0.0062	-14457.62
0.9947,0.0053	-14472.98
0.9927,0.0073	-14463.18
0.9973,0.0027	-14445.99
0.9947,0.0053	-14467.74
0.9964,0.0036	-14440.35
0.9933,0.0067	-14472.87
0.9950,0.0050	-14457.20
0.9919,0.0081	-14473.23
0.9975,0.0025	-14452.04
0.9925,0.0075	-14482.81
0.9964,0.0036	-14462.85
0.9942,0.0058	-14457.42
0.9951,0.0049	-14457.18
0.9926,0.0074	-14453.37
0.9975,0.0025	-14434.09
0.9926,0.0074	-14448.51
0.9947,0.0053	-14457.28
0.9945,0.0055	-14446.92
0.9954,0.0046	-14446.36
0.9897,0.0103	-14488.06
0.9978,0.0022	-14433.98
0.9932,0.0068	-14457.94
0.9950,0.0050	-14441.32
0.9929,0.0071	-14472.93
0.9949,0.0051	-14441.42
0.9899,0.0101	-14488.02
0.9978,0.0022	-14427.84
0.9935,0.0065	-14462.81
0.9954,0.0046	-14489.36
0.9933,0.0067	-14462.89
0.9945,0.0055	-14436.52
0.9913,0.0087	-14482.95
0.9974,0.0026	-14440.07
0.9926,0.0074	-14458.32
0.9957,0.0043	-14451.69
0.9941,0.0059	-14452.34
0.9952,0.0048	-14462.49
0.9929,0.0071	-14448.23
0.9980,0.0020	-14433.95
0.9947,0.0053	-14462.50
0.9966,0.0034	-14445.96
0.9936,0.0064	-14447.64
0.9959,0.0041	-14457.14
0.9900,0.0100	-14533.90
0.9981,0.0019	-14433.94
0.9934,0.0066	-14477.88
0.9959,0.0041	-14479.12
0.9938,0.0062	-14467.78
0.9957,0.0043	-14457.13
0.9922,0.0078	-14468.29
0.9980,0.0020	-14433.95
0.9948,0.0052	-14478.28
0.9962,0.0038	-14468.37
0.9930,0.0070	-14507.62
0.9951,0.0049	-14462.49
0.9944,0.0056	-14472.90
0.9978,0.0022	-14458.40
0.9945,0.0055	-14441.73
0.9958,0.0042	-14451.66
0.9930,0.0070	-14487.78
0.9941,0.0059	-14467.73
0.9954,0.0046	-14457.13
0.9976,0.0024	-14446.10
0.9933,0.0067	-14467.88
0.9960,0.0040	-14457.15
0.9940,0.0060	-14452.40
0.9929,0.0071	-14482.82
0.9954,0.0046	-14446.36
0.9980,0.0020	-14433.95
0.9922,0.0078	-14492.51
0.9957,0.0043	-14457.13
0.9933,0.0067	-14452.89
0.9922,0.0078	-14453.72
0.9948,0.0052	-14462.49
0.9976,0.0024	-14440.08
0.9918,0.0082	-14478.07
0.9959,0.0041	-14440.67
0.9931,0.0069	-14467.95
0.9915,0.0085	-14492.43
0.9957,0.0043	-14457.13
0.9983,0.0017	-14433.96
0.9912,0.0088	-14482.97
0.9957,0.0043	-14457.13
0.9934,0.0066	-14477.88
0.9905,0.0095	-14478.52
0.9952,0.0048	-14451.83
0.9978,0.0022	-14446.22
0.9922,0.0078	-14511.90
0.9961,0.0039	-14462.72
0.9942,0.0058	-14472.88
0.9910,0.0090	-14468.93
0.9966,0.0034	-14451.65
0.9980,0.0020	-14440.18
0.9920,0.0080	-14497.30
0.9961,0.0039	-14462.72
0.9918,0.0082	-14487.65
0.9928,0.0072	-14463.13
0.9957,0.0043	-14457.13
0.9985,0.0015	-14427.50
0.9912,0.0088	-14482.99
0.9963,0.0037	-14457.22
0.9929,0.0071	-14487.76
0.9935,0.0065	-14472.86
0.9969,0.0031	-14440.16
0.9988,0.0012	-14434.21
0.9920,0.0080	-14468.36
0.9959,0.0041	-14457.14
0.9945,0.0055	-14457.34
0.9931,0.0069	-14477.87
0.9971,0.0029	-14440.12
0.9988,0.0012	-14434.24
0.9916,0.0084	-14492.43
0.9960,0.0040	-14462.66
0.9958,0.0042	-14473.51
0.9941,0.0059	-14483.11
0.9968,0.0032	-14445.95
0.9988,0.0012	-14447.53
0.9920,0.0080	-14478.02
0.9967,0.0033	-14445.96
0.9956,0.0044	-14457.13
0.9915,0.0085	-14478.16
0.9964,0.0036	-14479.70
0.9986,0.0014	-14427.48
0.9904,0.0096	-14469.34
0.9968,0.0032	-14457.44
0.9957,0.0043	-14468.02
0.9934,0.0066	-14467.86
0.9960,0.0040	-14451.63
0.9982,0.0018	-14433.95
0.9905,0.0095	-14501.78
0.9970,0.0030	-14440.15
0.9964,0.0036	-14468.52
0.9929,0.0071	-14472.93
0.9961,0.0039	-14451.63
0.9980,0.0020	-14427.72
0.9921,0.0079	-14468.32
0.9971,0.0029	-14451.81
0.9964,0.0036	-14474.11
0.9922,0.0078	-14463.46
0.9949,0.0051	-14478.29
0.9981,0.0019	-14433.94
0.9908,0.0092	-14473.75
0.9969,0.0031	-14474.88
0.9964,0.0036	-14446.01
0.9921,0.0079	-14473.15
0.9938,0.0062	-14462.69
0.9982,0.0018	-14433.94
0.9877,0.0123	-14515.31
0.9968,0.0032	-14451.69
0.9961,0.0039	-14446.09
0.9908,0.0092	-14469.03
0.9934,0.0066	-14462.84
0.9980,0.0020	-14440.18
0.9845,0.0155	-14536.83
0.9961,0.0039	-14457.18
0.9971,0.0029	-14434.29
0.9909,0.0091	-14468.97
0.9941,0.0059	-14457.49
0.9978,0.0022	-14440.10
0.9838,0.0162	-14483.52
0.9964,0.0036	-14451.62
0.9967,0.0033	-14440.23
0.9904,0.0096	-14492.50
0.9942,0.0058	-14462.58
0.9982,0.0018	-14446.62
0.9877,0.0123	-14510.92
0.9955,0.0045	-14446.31
0.9969,0.0031	-14434.41
0.9898,0.0102	-14506.34
0.9944,0.0056	-14452.20
0.9980,0.0020	-14433.95
0.9861,0.0139	-14528.35
0.9955,0.0045	-14451.73
0.9972,0.0028	-14428.32
0.9888,0.0112	-14519.80
0.9940,0.0060	-14467.75
0.9978,0.0022	-14427.86
0.9879,0.0121	-14488.88
0.9963,0.0037	-14468.42
0.9967,0.0033	-14440.26
0.9904,0.0096	-14501.77
0.9936,0.0064	-14462.76
0.9974,0.0026	-14452.00
0.9890,0.0110	-14479.35
0.9967,0.0033	-14434.52
0.9965,0.0035	-14451.63
0.9920,0.0080	-14478.02
0.9944,0.0056	-14457.38
0.9969,0.0031	-14445.95
