#isoforms=['ENSG00000110080.SE.2.A.up_ENSG00000110080.SE.2.A.SE1_ENSG00000110080.SE.2.A.dn','ENSG00000110080.SE.2.B.up_ENSG00000110080.SE.2.B.dn']	exon_lens=('ENSG00000110080.SE.2.A.up',61),('ENSG00000110080.SE.2.A.SE1',96),('ENSG00000110080.SE.2.A.dn',190),('ENSG00000110080.SE.2.B.up',61),('ENSG00000110080.SE.2.B.dn',190)	iters=5000	burn_in=500	lag=10	percent_accept=94.34	proposal_type=drift	counts=(0,0):296,(0,1):1,(1,0):248,(1,1):272	assigned_counts=0:514,1:7	chrom=chr11	strand=+	mRNA_starts=126407574,126407574	mRNA_ends=126408496,126408496
sampled_psi	log_score
0.9178,0.0822	-3000.65
0.9750,0.0250	-2958.50
0.9627,0.0373	-2969.28
0.9302,0.0698	-2966.03
0.9558,0.0442	-2985.16
0.9626,0.0374	-2959.54
0.9069,0.0931	-3008.76
0.9678,0.0322	-2965.75
0.9658,0.0342	-2982.53
0.9251,0.0749	-3010.07
0.9565,0.0435	-2994.45
0.9556,0.0444	-2963.67
0.9141,0.0859	-3038.88
0.9682,0.0318	-2962.32
0.9639,0.0361	-2959.37
0.9299,0.0701	-3020.41
0.9591,0.0409	-2969.51
0.9552,0.0448	-2979.04
0.9167,0.0833	-3034.33
0.9694,0.0306	-2969.17
0.9662,0.0338	-2962.46
0.9386,0.0614	-2985.85
0.9510,0.0490	-2994.06
0.9534,0.0466	-2985.14
0.9350,0.0650	-2983.54
0.9689,0.0311	-2982.91
0.9678,0.0322	-2962.35
0.9316,0.0684	-2994.43
0.9330,0.0670	-2994.33
0.9541,0.0459	-2985.14
0.9471,0.0529	-2988.17
0.9735,0.0265	-2962.15
0.9704,0.0296	-2955.24
0.9318,0.0682	-2981.34
0.9275,0.0725	-3012.60
0.9550,0.0450	-2966.83
0.9462,0.0538	-2976.72
0.9760,0.0240	-2939.96
0.9749,0.0251	-2951.18
0.9350,0.0650	-2986.20
0.9382,0.0618	-3018.53
0.9539,0.0461	-2966.96
0.9615,0.0385	-2969.35
0.9753,0.0247	-2958.50
0.9648,0.0352	-2962.58
0.9356,0.0644	-3002.20
0.9468,0.0532	-3002.57
0.9466,0.0534	-2985.30
0.9538,0.0462	-2976.06
0.9758,0.0242	-2954.80
0.9613,0.0387	-2972.57
0.9358,0.0642	-2996.84
0.9512,0.0488	-2982.19
0.9436,0.0564	-2988.29
0.9508,0.0492	-2973.32
0.9776,0.0224	-2966.06
0.9634,0.0366	-2952.90
0.9450,0.0550	-2988.23
0.9456,0.0544	-2988.21
0.9322,0.0678	-2994.38
0.9515,0.0485	-2976.22
0.9757,0.0243	-2943.73
0.9687,0.0313	-2951.99
0.9498,0.0502	-2967.54
0.9403,0.0597	-2985.71
0.9343,0.0657	-2991.59
0.9449,0.0551	-2982.55
0.9750,0.0250	-2954.84
0.9682,0.0318	-2982.82
0.9466,0.0534	-2999.68
0.9335,0.0665	-2999.58
0.9498,0.0502	-2982.24
0.9500,0.0500	-3002.85
0.9713,0.0287	-2962.19
0.9676,0.0324	-2962.36
0.9404,0.0596	-2977.42
0.9109,0.0891	-3024.66
0.9506,0.0494	-2973.34
0.9523,0.0477	-2988.14
0.9709,0.0291	-2955.19
0.9697,0.0303	-2965.71
0.9452,0.0548	-2985.37
0.9198,0.0802	-2995.57
0.9522,0.0478	-2997.11
0.9625,0.0375	-2979.03
0.9700,0.0300	-2958.76
0.9706,0.0294	-2965.70
0.9518,0.0482	-2979.19
0.9132,0.0868	-3005.85
0.9512,0.0488	-2991.10
0.9519,0.0481	-2970.22
0.9667,0.0333	-2962.43
0.9620,0.0380	-2975.78
0.9463,0.0537	-2973.84
0.9192,0.0808	-3000.51
0.9473,0.0527	-2982.38
0.9525,0.0475	-2982.14
0.9669,0.0331	-2962.41
0.9590,0.0410	-2975.82
0.9325,0.0675	-2991.74
0.9122,0.0878	-3022.32
0.9474,0.0526	-2993.94
0.9545,0.0455	-2972.97
0.9650,0.0350	-2972.51
0.9534,0.0466	-2967.03
0.9352,0.0648	-2980.84
0.8970,0.1030	-3025.06
0.9366,0.0634	-2988.73
0.9633,0.0367	-2962.72
0.9577,0.0423	-2985.22
0.9583,0.0417	-2978.97
0.9403,0.0597	-2988.47
0.8839,0.1161	-3026.05
0.9397,0.0603	-2994.00
0.9618,0.0382	-2985.46
0.9654,0.0346	-2965.85
0.9611,0.0389	-2975.78
0.9434,0.0566	-3016.44
0.9036,0.0964	-2997.92
0.9390,0.0610	-2980.35
0.9655,0.0345	-2955.86
0.9646,0.0354	-2959.29
0.9663,0.0337	-2965.81
0.9541,0.0459	-2991.21
0.8788,0.1212	-3026.58
0.9384,0.0616	-2977.69
0.9610,0.0390	-2985.39
0.9644,0.0356	-2965.91
0.9630,0.0370	-2985.56
0.9496,0.0504	-2970.51
0.8891,0.1109	-3017.27
0.9511,0.0489	-2961.42
0.9608,0.0392	-2962.99
0.9630,0.0370	-2975.79
0.9639,0.0361	-2946.23
0.9481,0.0519	-2964.91
0.8967,0.1033	-3007.78
0.9450,0.0550	-2976.86
0.9619,0.0381	-2966.10
0.9666,0.0334	-2965.79
0.9632,0.0368	-2972.52
0.9555,0.0445	-2982.09
0.8866,0.1134	-3027.86
0.9504,0.0496	-2979.27
0.9613,0.0387	-2982.21
0.9601,0.0399	-2956.72
0.9498,0.0502	-2976.37
0.9650,0.0350	-2962.56
0.8790,0.1210	-3024.57
0.9361,0.0639	-2994.15
0.9610,0.0390	-2953.36
0.9721,0.0279	-2955.07
0.9590,0.0410	-2978.97
0.9619,0.0381	-2969.32
0.8991,0.1009	-3018.39
0.9281,0.0719	-2994.71
0.9606,0.0394	-2969.40
0.9741,0.0259	-2944.01
0.9569,0.0431	-2975.89
0.9599,0.0401	-2963.10
0.9112,0.0888	-3015.35
0.9371,0.0629	-2977.89
0.9553,0.0447	-3006.59
0.9718,0.0282	-2962.17
0.9573,0.0427	-2960.33
0.9657,0.0343	-2965.84
0.9208,0.0792	-3000.36
0.9387,0.0613	-2991.30
0.9651,0.0349	-2972.51
0.9678,0.0322	-2965.75
0.9634,0.0366	-2979.06
0.9641,0.0359	-2982.38
0.9318,0.0682	-3002.25
0.9310,0.0690	-2978.86
0.9696,0.0304	-2951.86
0.9630,0.0370	-2959.49
0.9715,0.0285	-2962.18
0.9666,0.0334	-2969.16
0.9140,0.0860	-3005.78
0.9286,0.0714	-3004.92
0.9605,0.0395	-2966.22
0.9673,0.0327	-2958.99
0.9677,0.0323	-2955.55
0.9720,0.0280	-2965.72
0.8946,0.1054	-3012.36
0.9293,0.0707	-2994.61
0.9661,0.0339	-2962.47
0.9713,0.0287	-2962.18
0.9673,0.0327	-2955.61
0.9715,0.0285	-2948.06
0.8921,0.1079	-3038.04
0.9403,0.0597	-3002.25
0.9649,0.0351	-2969.20
0.9695,0.0305	-2965.71
0.9647,0.0353	-2972.51
0.9697,0.0303	-2962.24
0.9033,0.0967	-3027.02
0.9311,0.0689	-2991.86
0.9583,0.0417	-2988.38
0.9688,0.0312	-2948.54
0.9659,0.0341	-2962.49
0.9607,0.0393	-2982.18
0.9141,0.0859	-2993.94
0.9374,0.0626	-2983.26
0.9610,0.0390	-2959.76
0.9647,0.0353	-2959.28
0.9710,0.0290	-2969.22
0.9616,0.0384	-2966.12
0.9277,0.0723	-2989.63
0.9312,0.0688	-2999.66
0.9667,0.0333	-2962.42
0.9697,0.0303	-2965.71
0.9744,0.0256	-2947.61
0.9629,0.0371	-2962.76
0.9353,0.0647	-2983.50
0.9406,0.0594	-3016.07
0.9716,0.0284	-2951.58
0.9761,0.0239	-2951.07
0.9769,0.0231	-2958.49
0.9600,0.0400	-2978.98
0.9509,0.0491	-2976.27
0.9181,0.0819	-3015.11
0.9657,0.0343	-2969.18
0.9694,0.0306	-2951.88
0.9775,0.0225	-2958.50
0.9594,0.0406	-2969.48
0.9675,0.0325	-2965.76
0.9265,0.0735	-2997.39
0.9664,0.0336	-2979.24
0.9702,0.0298	-2955.26
0.9767,0.0233	-2947.28
0.9537,0.0463	-2970.01
0.9663,0.0337	-2965.81
0.9362,0.0638	-2988.77
0.9646,0.0354	-2959.30
0.9627,0.0373	-2969.28
0.9760,0.0240	-2958.49
0.9440,0.0560	-2968.49
0.9723,0.0277	-2965.72
0.9176,0.0824	-2995.84
0.9616,0.0384	-2979.00
0.9615,0.0385	-2998.31
0.9752,0.0248	-2954.83
0.9525,0.0475	-2991.14
0.9748,0.0252	-2958.51
0.9217,0.0783	-3005.21
0.9597,0.0403	-2963.12
0.9629,0.0371	-2979.04
0.9726,0.0274	-2958.59
0.9545,0.0455	-2991.23
0.9769,0.0231	-2951.00
0.9316,0.0684	-2994.42
0.9695,0.0305	-2944.96
0.9595,0.0405	-2963.14
0.9692,0.0308	-2955.37
0.9608,0.0392	-2972.59
0.9781,0.0219	-2950.92
0.9258,0.0742	-2994.92
0.9772,0.0228	-2954.73
0.9727,0.0273	-2940.71
0.9587,0.0413	-2972.68
0.9661,0.0339	-2979.22
0.9819,0.0181	-2950.76
0.9289,0.0711	-2979.21
0.9764,0.0236	-2962.21
0.9558,0.0442	-2975.94
0.9489,0.0511	-2993.98
0.9675,0.0325	-2972.55
0.9844,0.0156	-2954.96
0.9338,0.0662	-2999.57
0.9827,0.0173	-2930.57
0.9556,0.0444	-2969.82
0.9393,0.0607	-2983.06
0.9693,0.0307	-2972.62
0.9818,0.0182	-2942.78
0.9219,0.0781	-2992.86
0.9830,0.0170	-2950.76
0.9350,0.0650	-3004.87
0.9341,0.0659	-2994.26
0.9657,0.0343	-2969.18
0.9832,0.0168	-2930.41
0.9116,0.0884	-3015.33
0.9868,0.0132	-2933.75
0.9325,0.0675	-2991.74
0.9428,0.0572	-2985.52
0.9664,0.0336	-2969.16
0.9804,0.0196	-2950.79
0.9192,0.0808	-2998.07
0.9880,0.0120	-2942.34
0.9319,0.0681	-3012.71
0.9399,0.0601	-2999.49
0.9716,0.0284	-2951.58
0.9799,0.0201	-2943.04
0.9259,0.0741	-3002.49
0.9885,0.0115	-2942.35
0.9390,0.0610	-2994.02
0.9345,0.0655	-3007.52
0.9718,0.0282	-2955.09
0.9831,0.0169	-2934.52
0.9338,0.0662	-3004.86
0.9892,0.0108	-2951.40
0.9437,0.0563	-2982.64
0.9324,0.0676	-2994.37
0.9696,0.0304	-2962.25
0.9850,0.0150	-2955.02
0.9375,0.0625	-2996.79
0.9916,0.0084	-2942.55
0.9540,0.0460	-2991.21
0.9288,0.0712	-2989.51
0.9705,0.0295	-2951.73
0.9852,0.0148	-2976.04
0.9395,0.0605	-2999.49
0.9898,0.0102	-2942.39
0.9587,0.0413	-2966.39
0.9362,0.0638	-2980.71
0.9711,0.0289	-2969.22
0.9852,0.0148	-2955.05
0.9323,0.0677	-2986.51
0.9888,0.0112	-2951.31
0.9645,0.0355	-2972.51
0.9512,0.0488	-2967.33
0.9745,0.0255	-2965.80
0.9826,0.0174	-2958.83
0.9364,0.0636	-2983.37
0.9875,0.0125	-2942.35
0.9566,0.0434	-2979.00
0.9435,0.0565	-2982.66
0.9802,0.0198	-2954.70
0.9825,0.0175	-2942.70
0.9402,0.0598	-2982.96
0.9892,0.0108	-2933.33
0.9593,0.0407	-2950.54
0.9472,0.0528	-2991.05
0.9793,0.0207	-2954.70
0.9819,0.0181	-2950.76
0.9359,0.0641	-2991.47
0.9897,0.0103	-2942.38
0.9575,0.0425	-2991.44
0.9535,0.0465	-2967.02
0.9778,0.0222	-2958.50
0.9785,0.0215	-2966.16
0.9403,0.0597	-3002.25
0.9892,0.0108	-2942.36
0.9640,0.0360	-2965.94
0.9569,0.0431	-2966.59
0.9797,0.0203	-2950.82
0.9782,0.0218	-2977.52
0.9386,0.0614	-2985.85
0.9870,0.0130	-2938.03
0.9616,0.0384	-2979.00
0.9505,0.0495	-2994.03
0.9810,0.0190	-2942.89
0.9716,0.0284	-2958.64
0.9349,0.0651	-2978.22
0.9841,0.0159	-2950.79
0.9543,0.0457	-2979.07
0.9579,0.0421	-2969.61
0.9775,0.0225	-2958.50
0.9731,0.0269	-2965.74
0.9267,0.0733	-2994.83
0.9819,0.0181	-2958.74
0.9500,0.0500	-2994.01
0.9551,0.0449	-2969.86
0.9812,0.0188	-2954.73
0.9792,0.0208	-2950.84
0.9146,0.0854	-3012.84
0.9835,0.0165	-2950.77
0.9389,0.0611	-2988.56
0.9572,0.0428	-2969.67
0.9783,0.0217	-2954.71
0.9780,0.0220	-2962.30
0.9067,0.0933	-3008.79
0.9830,0.0170	-2946.71
0.9369,0.0631	-2986.01
0.9480,0.0520	-2973.63
0.9749,0.0251	-2962.17
0.9768,0.0232	-2958.49
0.9180,0.0820	-3019.95
0.9842,0.0158	-2942.53
0.9419,0.0581	-2999.51
0.9531,0.0469	-2961.04
0.9721,0.0279	-2940.86
0.9700,0.0300	-2972.66
0.9280,0.0720	-2992.15
0.9846,0.0154	-2946.66
0.9357,0.0643	-2975.42
0.9539,0.0461	-2963.93
0.9690,0.0310	-2965.72
0.9742,0.0258	-2958.53
0.9363,0.0637	-2988.76
0.9857,0.0143	-2938.20
0.9489,0.0511	-2982.29
0.9484,0.0516	-3011.43
0.9703,0.0297	-2972.68
0.9759,0.0241	-2969.60
0.9147,0.0853	-3003.34
0.9826,0.0174	-2962.86
0.9578,0.0422	-2982.10
0.9427,0.0573	-2977.12
0.9699,0.0301	-2962.24
0.9764,0.0236	-2951.04
0.9192,0.0808	-3012.67
0.9797,0.0203	-2939.20
0.9508,0.0492	-2985.16
0.9441,0.0559	-2991.09
0.9694,0.0306	-2958.81
0.9741,0.0259	-2969.41
0.9276,0.0724	-2989.65
0.9733,0.0267	-2965.75
0.9547,0.0453	-2969.91
0.9545,0.0455	-2982.10
0.9726,0.0274	-2947.89
0.9685,0.0315	-2982.86
0.9352,0.0648	-2983.51
0.9735,0.0265	-2969.36
0.9615,0.0385	-2988.65
0.9614,0.0386	-2982.21
0.9706,0.0294	-2965.70
0.9691,0.0309	-2969.16
0.9334,0.0666	-2989.02
0.9750,0.0250	-2947.51
0.9651,0.0349	-2952.60
0.9699,0.0301	-2962.23
0.9598,0.0402	-2956.77
0.9728,0.0272	-2955.01
0.9341,0.0659	-2983.66
0.9687,0.0313	-2965.73
0.9631,0.0369	-2985.57
0.9703,0.0297	-2976.17
0.9461,0.0539	-2985.33
0.9747,0.0253	-2962.16
0.9316,0.0684	-3010.09
0.9712,0.0288	-2951.64
0.9573,0.0427	-2985.20
0.9724,0.0276	-2969.29
0.9492,0.0508	-2982.28
0.9695,0.0305	-2965.71
0.9503,0.0497	-2985.18
0.9709,0.0291	-2976.23
0.9655,0.0345	-2969.18
0.9734,0.0266	-2947.75
0.9367,0.0633	-2988.72
0.9613,0.0387	-2966.14
0.9604,0.0396	-2966.23
0.9721,0.0279	-2955.07
0.9661,0.0339	-2982.57
0.9664,0.0336	-2962.45
0.9348,0.0652	-2978.24
0.9556,0.0444	-2972.88
0.9585,0.0415	-2975.83
0.9666,0.0334	-2965.79
0.9598,0.0402	-2982.15
0.9688,0.0312	-2972.60
0.9388,0.0612	-2996.76
0.9449,0.0551	-2993.92
0.9635,0.0365	-2972.52
0.9632,0.0368	-2988.85
0.9589,0.0411	-2960.07
0.9577,0.0423	-2966.51
0.9341,0.0659	-3012.82
0.9537,0.0463	-2976.06
0.9662,0.0338	-2955.76
0.9652,0.0348	-2969.19
0.9662,0.0338	-2982.58
0.9508,0.0492	-2955.55
0.9258,0.0742	-3005.01
0.9545,0.0455	-2976.01
0.9673,0.0327	-2969.15
0.9705,0.0295	-2962.21
0.9732,0.0268	-2940.59
0.9582,0.0418	-2982.11
0.9064,0.0936	-3017.89
0.9647,0.0353	-2955.97
0.9756,0.0244	-2969.56
0.9628,0.0372	-2953.01
0.9767,0.0233	-2947.28
0.9591,0.0409	-2969.51
0.9191,0.0809	-3002.94
0.9607,0.0393	-2975.79
0.9743,0.0257	-2973.06
0.9722,0.0278	-2965.72
0.9731,0.0269	-2962.16
0.9571,0.0429	-2997.63
0.9314,0.0686	-3004.87
0.9549,0.0451	-2997.37
0.9717,0.0283	-2948.03
0.9697,0.0303	-2962.25
0.9708,0.0292	-2955.19
0.9538,0.0462	-2985.14
0.9348,0.0652	-2972.91
0.9449,0.0551	-2988.23
0.9816,0.0184	-2942.81
0.9702,0.0298	-2962.22
0.9685,0.0315	-2955.45
0.9614,0.0386	-2959.71
0.9429,0.0571	-2982.71
0.9272,0.0728	-3004.96
0.9851,0.0149	-2938.27
0.9703,0.0297	-2962.22
0.9657,0.0343	-2979.19
0.9632,0.0368	-2959.46
0.9549,0.0451	-2982.10
0.9307,0.0693	-3007.48
0.9854,0.0146	-2946.65
0.9746,0.0254	-2951.22
0.9581,0.0419	-2963.33
0.9655,0.0345	-2972.51
0.9637,0.0363	-2962.68
0.9247,0.0753	-3000.05
0.9869,0.0131	-2946.69
0.9758,0.0242	-2965.89
0.9589,0.0411	-2991.57
0.9559,0.0441	-2985.17
0.9621,0.0379	-2979.01
0.9202,0.0798	-3012.64
0.9847,0.0153	-2942.49
0.9757,0.0243	-2958.49
0.9644,0.0356	-2965.91
0.9662,0.0338	-2975.87
0.9609,0.0391	-2959.78
0.9339,0.0661	-3002.21
0.9819,0.0181	-2950.76
0.9793,0.0207	-2939.28
0.9656,0.0344	-2965.85
0.9654,0.0346	-2972.51
0.9591,0.0409	-2997.90
0.9413,0.0587	-2996.73
0.9781,0.0219	-2958.51
0.9808,0.0192	-2938.99
0.9708,0.0292	-2979.72
0.9741,0.0259	-2958.53
0.9634,0.0366	-2959.44
0.9450,0.0550	-3002.45
0.9824,0.0176	-2954.78
0.9783,0.0217	-2947.09
0.9692,0.0308	-2982.96
0.9767,0.0233	-2954.75
0.9654,0.0346	-2979.17
0.9525,0.0475	-2973.14
0.9820,0.0180	-2938.76
0.9814,0.0186	-2954.73
0.9687,0.0313	-2948.56
0.9713,0.0287	-2979.79
0.9607,0.0393	-2966.20
0.9399,0.0601	-2988.49
0.9836,0.0164	-2963.07
0.9841,0.0159	-2954.92
0.9754,0.0246	-2958.50
0.9714,0.0286	-2969.23
0.9632,0.0368	-2966.00
0.9397,0.0603	-2974.78
0.9820,0.0180	-2966.75
0.9809,0.0191	-2950.78
0.9733,0.0267	-2951.37
0.9727,0.0273	-2962.16
0.9637,0.0363	-2979.07
0.9543,0.0457	-2985.14
0.9785,0.0215	-2958.52
0.9796,0.0204	-2946.96
0.9765,0.0235	-2947.31
0.9780,0.0220	-2950.92
0.9590,0.0410	-2982.13
0.9429,0.0571	-2991.12
0.9801,0.0199	-2946.91
0.9774,0.0226	-2950.96
0.9779,0.0221	-2954.72
0.9859,0.0141	-2950.90
0.9598,0.0402	-2969.46
0.9430,0.0570	-2985.51
0.9726,0.0274	-2947.88
0.9728,0.0272	-2958.58
0.9812,0.0188	-2946.82
0.9849,0.0151	-2938.30
0.9568,0.0432	-2991.38
0.9377,0.0623	-3002.21
0.9718,0.0282	-2955.09
0.9687,0.0313	-2965.73
0.9791,0.0209	-2947.00
0.9836,0.0164	-2967.14
0.9534,0.0466	-2982.12
0.9479,0.0521	-2964.94
0.9710,0.0290	-2962.19
0.9710,0.0290	-2972.73
0.9802,0.0198	-2962.51
0.9814,0.0186	-2942.84
0.9580,0.0420	-2988.36
0.9437,0.0563	-2977.01
0.9725,0.0275	-2951.46
0.9750,0.0250	-2940.20
0.9762,0.0238	-2947.35
0.9807,0.0193	-2958.64
0.9615,0.0385	-2966.13
0.9416,0.0584	-2980.04
0.9743,0.0257	-2943.98
0.9700,0.0300	-2976.14
0.9664,0.0336	-2969.16
0.9783,0.0217	-2969.94
0.9555,0.0445	-2969.83
0.9305,0.0695	-2986.72
0.9725,0.0275	-2962.16
0.9732,0.0268	-2958.56
0.9702,0.0298	-2976.16
0.9834,0.0166	-2950.77
0.9458,0.0542	-2979.62
0.9451,0.0549	-2982.54
0.9797,0.0203	-2943.07
0.9722,0.0278	-2955.05
0.9702,0.0298	-2958.74
0.9825,0.0175	-2942.70
0.9488,0.0512	-2985.21
0.9411,0.0589	-2985.65
0.9830,0.0170	-2946.71
0.9755,0.0245	-2958.50
0.9707,0.0293	-2986.71
0.9835,0.0165	-2942.59
0.9451,0.0549	-2985.38
0.9389,0.0611	-2996.76
0.9856,0.0144	-2946.66
0.9721,0.0279	-2979.93
0.9707,0.0293	-2997.21
0.9862,0.0138	-2933.85
0.9426,0.0574	-2993.93
0.9391,0.0609	-3018.64
0.9874,0.0126	-2933.63
0.9753,0.0247	-2958.50
0.9657,0.0343	-2975.85
0.9840,0.0160	-2950.79
0.9440,0.0560	-2982.62
0.9381,0.0619	-2975.02
0.9878,0.0122	-2933.56
0.9730,0.0270	-2962.16
0.9598,0.0402	-2969.46
0.9835,0.0165	-2938.51
0.9419,0.0581	-2996.73
0.9386,0.0614	-2991.31
0.9894,0.0106	-2937.83
0.9796,0.0204	-2946.96
0.9424,0.0576	-2993.93
0.9866,0.0134	-2942.38
0.9426,0.0574	-2988.33
0.9460,0.0540	-2996.78
0.9908,0.0092	-2933.10
0.9781,0.0219	-2950.91
0.9247,0.0753	-3000.04
0.9907,0.0093	-2937.78
0.9510,0.0490	-2979.23
0.9491,0.0509	-2979.36
0.9913,0.0087	-2942.51
0.9729,0.0271	-2947.83
0.9416,0.0584	-2974.48
0.9925,0.0075	-2937.82
0.9504,0.0496	-2979.26
0.9431,0.0569	-2985.50
0.9917,0.0083	-2933.00
0.9707,0.0293	-2965.70
0.9343,0.0657	-2994.25
0.9902,0.0098	-2937.80
0.9658,0.0342	-2962.49
0.9431,0.0569	-2985.50
0.9926,0.0074	-2932.93
0.9745,0.0255	-2947.59
0.9366,0.0634	-2980.65
0.9875,0.0125	-2951.09
0.9638,0.0362	-2975.80
0.9382,0.0618	-3004.93
0.9913,0.0087	-2937.78
0.9715,0.0285	-2962.18
0.9322,0.0678	-2997.00
0.9872,0.0128	-2946.70
0.9625,0.0375	-2975.78
0.9309,0.0691	-2976.27
0.9899,0.0101	-2942.39
0.9717,0.0283	-2969.25
0.9188,0.0812	-3024.81
0.9890,0.0110	-2942.35
0.9655,0.0345	-2979.17
0.9430,0.0570	-2985.51
0.9923,0.0077	-2928.08
0.9736,0.0264	-2976.59
0.9238,0.0762	-2995.12
0.9862,0.0138	-2938.13
0.9684,0.0316	-2962.31
0.9527,0.0473	-2988.14
0.9906,0.0094	-2937.79
0.9717,0.0283	-2965.71
0.9279,0.0721	-2997.28
0.9843,0.0157	-2938.39
0.9768,0.0232	-2951.01
0.9408,0.0592	-3005.03
0.9929,0.0071	-2932.91
0.9720,0.0280	-2976.35
0.9329,0.0671	-3004.86
0.9831,0.0169	-2942.64
0.9732,0.0268	-2972.93
0.9337,0.0663	-2986.34
0.9917,0.0083	-2928.23
0.9785,0.0215	-2943.25
0.9291,0.0709	-3004.91
0.9858,0.0142	-2955.13
0.9722,0.0278	-2947.95
0.9391,0.0609	-2988.54
0.9918,0.0082	-2942.59
0.9712,0.0288	-2941.08
0.9282,0.0718	-3004.93
0.9857,0.0143	-2942.42
0.9677,0.0323	-2958.95
0.9499,0.0501	-2994.01
0.9903,0.0097	-2937.79
0.9788,0.0212	-2958.53
0.9433,0.0567	-2999.55
0.9856,0.0144	-2942.43
0.9673,0.0327	-2952.22
0.9481,0.0519	-2979.43
0.9907,0.0093	-2937.78
0.9804,0.0196	-2946.88
0.9477,0.0523	-2982.36
0.9860,0.0140	-2946.66
0.9599,0.0401	-2969.45
0.9467,0.0533	-2999.68
0.9919,0.0081	-2932.99
0.9841,0.0159	-2954.92
0.9505,0.0495	-2961.52
0.9873,0.0127	-2938.00
0.9528,0.0472	-2985.14
0.9445,0.0555	-2988.25
0.9910,0.0090	-2937.78
0.9825,0.0175	-2950.76
0.9513,0.0487	-2982.18
0.9866,0.0134	-2946.68
0.9520,0.0480	-2982.16
0.9549,0.0451	-2988.20
0.9927,0.0073	-2937.83
0.9874,0.0126	-2964.17
0.9475,0.0525	-2996.84
0.9865,0.0135	-2946.67
0.9540,0.0460	-2985.14
0.9623,0.0377	-2969.30
0.9915,0.0085	-2937.78
0.9899,0.0101	-2942.39
0.9449,0.0551	-3005.28
0.9878,0.0122	-2942.35
0.9547,0.0453	-2972.96
0.9518,0.0482	-2991.12
0.9903,0.0097	-2942.42
0.9901,0.0099	-2956.23
0.9462,0.0538	-2996.79
0.9867,0.0133	-2942.38
0.9490,0.0510	-2996.91
0.9591,0.0409	-2944.28
0.9900,0.0100	-2928.61
0.9893,0.0107	-2928.79
0.9477,0.0523	-2979.46
0.9857,0.0143	-2955.12
0.9604,0.0396	-2963.04
0.9579,0.0421	-2957.10
0.9888,0.0112	-2946.83
0.9900,0.0100	-2942.40
0.9497,0.0503	-2996.94
0.9887,0.0113	-2937.88
0.9606,0.0394	-2966.21
0.9635,0.0365	-2952.89
0.9873,0.0127	-2938.00
0.9900,0.0100	-2928.60
0.9364,0.0636	-3029.09
0.9906,0.0094	-2947.09
0.9650,0.0350	-2982.46
0.9597,0.0403	-2966.29
0.9856,0.0144	-2950.88
0.9877,0.0123	-2946.73
0.9336,0.0664	-2999.57
0.9909,0.0091	-2933.09
0.9601,0.0399	-2969.43
0.9579,0.0421	-2972.73
0.9860,0.0140	-2946.66
0.9886,0.0114	-2937.88
0.9320,0.0680	-2983.93
0.9908,0.0092	-2947.14
0.9697,0.0303	-2944.91
0.9428,0.0572	-2982.72
0.9857,0.0143	-2950.89
0.9896,0.0104	-2933.26
0.9366,0.0634	-2983.35
0.9896,0.0104	-2942.38
0.9679,0.0321	-2962.34
0.9459,0.0541	-2996.78
0.9887,0.0113	-2937.88
0.9870,0.0130	-2942.36
0.9427,0.0573	-2999.53
0.9898,0.0102	-2946.96
0.9679,0.0321	-2962.34
0.9469,0.0531	-2985.29
0.9896,0.0104	-2933.26
0.9829,0.0171	-2942.66
0.9345,0.0655	-3015.50
0.9893,0.0107	-2937.84
0.9584,0.0416	-2960.14
0.9456,0.0544	-2979.64
0.9889,0.0111	-2942.35
0.9787,0.0213	-2958.53
0.9275,0.0725	-2997.31
0.9886,0.0114	-2942.35
0.9543,0.0457	-2972.99
0.9513,0.0487	-2979.21
0.9911,0.0089	-2933.07
0.9785,0.0215	-2954.70
0.9224,0.0776	-3029.93
0.9886,0.0114	-2933.43
0.9417,0.0583	-2991.16
0.9460,0.0540	-2985.33
0.9890,0.0110	-2946.86
0.9802,0.0198	-2943.00
0.9306,0.0694	-2997.10
0.9884,0.0116	-2955.69
0.9373,0.0627	-3010.32
0.9504,0.0496	-2982.22
0.9889,0.0111	-2937.86
0.9795,0.0205	-2950.83
0.9331,0.0669	-3012.77
0.9876,0.0124	-2951.10
0.9351,0.0649	-2999.53
0.9533,0.0467	-2964.02
0.9879,0.0121	-2959.97
0.9802,0.0198	-2950.80
0.9266,0.0734	-3020.20
0.9870,0.0130	-2955.36
0.9441,0.0559	-2982.61
0.9488,0.0512	-2970.62
0.9876,0.0124	-2951.11
0.9785,0.0215	-2954.70
0.9253,0.0747	-2997.48
0.9872,0.0128	-2942.36
0.9329,0.0671	-3036.45
0.9492,0.0508	-2993.99
0.9886,0.0114	-2946.81
0.9760,0.0240	-2943.66
0.9286,0.0714	-3010.05
0.9854,0.0146	-2934.02
0.9398,0.0602	-2991.24
0.9514,0.0486	-2973.25
0.9915,0.0085	-2933.02
0.9802,0.0198	-2950.80
0.9238,0.0762	-3015.08
0.9820,0.0180	-2958.76
0.9222,0.0778	-3039.80
0.9475,0.0525	-2962.12
0.9912,0.0088	-2947.22
0.9819,0.0181	-2950.76
0.9426,0.0574	-2988.34
0.9840,0.0160	-2946.67
0.9297,0.0703	-3002.32
0.9391,0.0609	-2983.08
0.9914,0.0086	-2937.78
0.9843,0.0157	-2938.39
0.9425,0.0575	-2974.35
0.9856,0.0144	-2946.66
0.9470,0.0530	-2993.93
0.9482,0.0518	-2982.33
0.9911,0.0089	-2933.06
0.9872,0.0128	-2946.70
0.9370,0.0630	-2988.70
0.9861,0.0139	-2959.46
0.9446,0.0554	-2982.57
0.9453,0.0547	-2979.67
0.9912,0.0088	-2947.23
0.9833,0.0167	-2938.54
0.9456,0.0544	-2988.21
0.9843,0.0157	-2946.66
0.9449,0.0551	-2985.39
0.9637,0.0363	-2982.36
0.9934,0.0066	-2927.87
0.9794,0.0206	-2954.70
0.9487,0.0513	-2967.72
0.9852,0.0148	-2938.25
0.9524,0.0476	-2982.15
0.9609,0.0391	-2985.39
0.9941,0.0059	-2938.00
0.9793,0.0207	-2966.27
0.9415,0.0585	-2993.95
0.9841,0.0159	-2946.67
0.9581,0.0419	-2966.46
0.9732,0.0268	-2962.15
0.9948,0.0052	-2943.39
0.9820,0.0180	-2942.77
0.9376,0.0624	-3004.91
0.9783,0.0217	-2939.48
0.9596,0.0404	-2985.31
0.9813,0.0187	-2946.81
0.9942,0.0058	-2927.73
0.9835,0.0165	-2942.60
0.9420,0.0580	-2993.94
0.9730,0.0270	-2983.66
0.9652,0.0348	-2969.19
0.9765,0.0235	-2947.31
0.9927,0.0073	-2942.75
0.9886,0.0114	-2942.35
0.9378,0.0622	-2988.64
0.9735,0.0265	-2965.76
0.9655,0.0345	-2992.50
0.9733,0.0267	-2951.37
0.9921,0.0079	-2937.80
0.9893,0.0107	-2955.93
0.9343,0.0657	-2980.97
0.9660,0.0340	-2969.17
0.9603,0.0397	-2978.98
0.9710,0.0290	-2979.75
0.9903,0.0097	-2928.54
0.9917,0.0083	-2937.79
0.9347,0.0653	-2980.91
0.9598,0.0402	-2975.80
0.9615,0.0385	-2962.91
0.9669,0.0331	-2962.41
0.9901,0.0099	-2937.80
0.9913,0.0087	-2933.05
0.9343,0.0657	-3007.52
0.9388,0.0612	-2991.30
0.9549,0.0451	-2969.88
0.9689,0.0311	-2958.84
0.9890,0.0110	-2951.34
0.9916,0.0084	-2942.56
0.9432,0.0568	-2993.92
0.9610,0.0390	-2956.56
0.9487,0.0513	-2970.64
0.9713,0.0287	-2962.19
0.9865,0.0135	-2933.81
0.9906,0.0094	-2937.78
0.9412,0.0588	-2980.09
0.9665,0.0335	-2975.89
0.9472,0.0528	-2991.05
0.9700,0.0300	-2969.18
0.9870,0.0130	-2951.03
0.9916,0.0084	-2942.55
0.9446,0.0554	-2988.24
0.9621,0.0379	-2975.78
0.9492,0.0508	-2970.57
0.9710,0.0290	-2958.68
0.9851,0.0149	-2963.43
0.9914,0.0086	-2937.78
0.9503,0.0497	-2982.22
0.9558,0.0442	-2985.17
0.9405,0.0595	-3010.54
0.9724,0.0276	-2962.16
0.9801,0.0199	-2962.50
0.9910,0.0090	-2933.08
0.9574,0.0426	-2966.53
0.9673,0.0327	-2945.45
0.9386,0.0614	-2994.04
0.9731,0.0269	-2976.50
0.9776,0.0224	-2950.95
0.9912,0.0088	-2933.05
0.9514,0.0486	-2982.18
0.9605,0.0395	-2991.75
0.9389,0.0611	-2994.02
0.9802,0.0198	-2946.90
0.9801,0.0199	-2954.70
0.9907,0.0093	-2947.12
0.9665,0.0335	-2972.52
0.9600,0.0400	-2978.98
0.9552,0.0448	-2972.92
0.9795,0.0205	-2970.16
0.9773,0.0227	-2958.49
0.9889,0.0111	-2942.35
0.9618,0.0382	-2969.33
0.9668,0.0332	-2959.04
0.9524,0.0476	-2997.13
0.9728,0.0272	-2951.43
0.9765,0.0235	-2958.49
0.9877,0.0123	-2946.73
0.9623,0.0377	-2966.06
0.9667,0.0333	-2945.58
0.9371,0.0629	-2988.69
0.9797,0.0203	-2977.97
0.9758,0.0242	-2965.88
0.9884,0.0116	-2937.90
0.9572,0.0428	-2972.77
0.9723,0.0277	-2969.28
0.9375,0.0625	-3015.74
0.9800,0.0200	-2935.24
0.9713,0.0287	-2969.23
0.9895,0.0105	-2937.83
0.9546,0.0454	-2963.82
0.9706,0.0294	-2976.20
0.9313,0.0687	-2989.24
0.9862,0.0138	-2933.86
0.9746,0.0254	-2951.22
0.9923,0.0077	-2942.66
0.9606,0.0394	-2963.02
0.9671,0.0329	-2972.54
0.9365,0.0635	-2991.44
0.9881,0.0119	-2937.92
0.9721,0.0279	-2951.52
0.9923,0.0077	-2932.95
0.9471,0.0529	-2993.94
0.9781,0.0219	-2950.91
0.9378,0.0622	-3013.06
0.9891,0.0109	-2942.36
0.9783,0.0217	-2962.33
0.9912,0.0088	-2937.78
0.9447,0.0553	-2979.73
0.9751,0.0249	-2958.50
0.9340,0.0660	-2978.36
0.9868,0.0132	-2942.37
0.9821,0.0179	-2950.76
0.9897,0.0103	-2960.65
0.9536,0.0464	-2982.12
0.9704,0.0296	-2962.22
0.9376,0.0624	-3004.91
0.9882,0.0118	-2942.34
0.9805,0.0195	-2954.71
0.9884,0.0116	-2933.45
0.9594,0.0406	-2972.65
0.9699,0.0301	-2979.60
0.9296,0.0704	-2991.99
0.9876,0.0124	-2937.98
0.9850,0.0150	-2955.02
0.9884,0.0116	-2946.79
0.9575,0.0425	-2966.53
0.9662,0.0338	-2969.17
0.9300,0.0700	-3002.31
0.9875,0.0125	-2937.98
0.9808,0.0192	-2950.78
0.9865,0.0135	-2942.38
0.9586,0.0414	-2975.83
0.9601,0.0399	-2982.16
0.9144,0.0856	-3005.74
0.9880,0.0120	-2951.16
0.9795,0.0205	-2943.10
0.9849,0.0151	-2942.48
0.9590,0.0410	-2975.82
0.9563,0.0437	-2975.92
0.9161,0.0839	-3007.99
0.9872,0.0128	-2951.05
0.9763,0.0237	-2951.05
0.9840,0.0160	-2946.67
0.9589,0.0411	-2972.67
0.9552,0.0448	-2975.98
0.9268,0.0732	-2992.29
0.9840,0.0160	-2950.79
0.9755,0.0245	-2958.50
0.9837,0.0163	-2946.68
0.9603,0.0397	-2975.79
0.9619,0.0381	-2956.41
0.9294,0.0706	-2984.29
0.9856,0.0144	-2959.33
0.9799,0.0201	-2950.81
0.9833,0.0167	-2938.54
0.9563,0.0437	-2975.92
0.9625,0.0375	-2975.78
0.9348,0.0652	-2978.23
0.9871,0.0129	-2938.02
0.9845,0.0155	-2946.66
0.9828,0.0172	-2942.68
0.9626,0.0374	-2962.79
0.9608,0.0392	-2985.39
0.9346,0.0654	-2991.57
0.9862,0.0138	-2959.48
0.9850,0.0150	-2955.03
0.9769,0.0231	-2951.00
0.9662,0.0338	-2965.81
0.9547,0.0453	-2969.91
0.9282,0.0718	-2994.70
0.9874,0.0126	-2942.35
0.9873,0.0127	-2933.65
0.9696,0.0304	-2955.32
0.9612,0.0388	-2962.94
0.9509,0.0491	-2961.45
0.9196,0.0804	-3010.22
0.9874,0.0126	-2937.99
0.9887,0.0113	-2946.82
0.9684,0.0316	-2965.73
0.9616,0.0384	-2966.12
0.9592,0.0408	-2963.18
0.9160,0.0840	-3000.82
0.9863,0.0137	-2938.11
0.9900,0.0100	-2928.61
0.9633,0.0367	-2965.99
0.9609,0.0391	-2966.18
0.9440,0.0560	-2999.57
0.9370,0.0630	-2994.10
0.9841,0.0159	-2934.30
0.9857,0.0143	-2942.42
0.9531,0.0469	-3000.20
0.9594,0.0406	-2991.62
0.9421,0.0579	-2993.94
0.9357,0.0643	-2994.17
0.9763,0.0237	-2947.34
0.9835,0.0165	-2946.69
0.9550,0.0450	-3000.43
0.9602,0.0398	-2982.16
0.9438,0.0562	-2974.17
0.9461,0.0539	-2993.92
0.9765,0.0235	-2954.76
0.9819,0.0181	-2958.75
0.9570,0.0430	-2969.69
0.9707,0.0293	-2965.70
0.9506,0.0494	-2973.34
0.9442,0.0558	-2974.11
0.9751,0.0249	-2976.85
0.9863,0.0137	-2946.67
0.9605,0.0395	-2959.83
0.9711,0.0289	-2951.64
0.9479,0.0521	-2979.44
0.9466,0.0534	-2993.93
0.9703,0.0297	-2962.22
0.9874,0.0126	-2951.07
0.9655,0.0345	-2992.50
0.9782,0.0218	-2958.51
0.9350,0.0650	-2967.54
0.9486,0.0514	-2979.40
0.9686,0.0314	-2993.16
0.9904,0.0096	-2933.15
0.9633,0.0367	-2975.79
0.9721,0.0279	-2962.17
0.9273,0.0727	-3004.96
0.9456,0.0544	-2973.92
0.9692,0.0308	-2955.37
0.9909,0.0091	-2951.85
0.9587,0.0413	-2994.69
0.9690,0.0310	-2969.16
0.9319,0.0681	-2997.02
0.9521,0.0479	-2970.20
0.9720,0.0280	-2951.53
0.9901,0.0099	-2942.40
0.9601,0.0399	-2988.52
0.9719,0.0281	-2948.00
0.9226,0.0774	-2985.34
0.9473,0.0527	-2988.16
0.9645,0.0355	-2959.31
0.9920,0.0080	-2928.16
0.9502,0.0498	-2985.18
0.9709,0.0291	-2976.23
0.9297,0.0703	-2989.41
0.9496,0.0504	-2996.93
0.9606,0.0394	-2959.82
0.9924,0.0076	-2942.69
0.9484,0.0516	-2991.05
0.9740,0.0260	-2940.43
0.9220,0.0780	-3010.14
0.9583,0.0417	-2975.84
0.9615,0.0385	-2982.21
0.9923,0.0077	-2932.95
0.9559,0.0441	-2963.63
0.9770,0.0230	-2950.99
0.9232,0.0768	-3002.64
0.9677,0.0323	-2979.35
0.9651,0.0349	-2959.23
0.9914,0.0086	-2956.76
0.9560,0.0440	-2957.47
0.9737,0.0263	-2965.76
0.9348,0.0652	-2999.54
0.9705,0.0295	-2969.20
0.9598,0.0402	-2959.94
0.9899,0.0101	-2942.39
0.9543,0.0457	-2985.14
0.9549,0.0451	-3000.41
0.9282,0.0718	-3004.93
0.9703,0.0297	-2962.22
0.9466,0.0534	-2973.81
0.9918,0.0082	-2947.39
0.9522,0.0478	-2973.18
0.9599,0.0401	-2956.75
0.9307,0.0693	-3007.48
0.9686,0.0314	-2958.87
0.9367,0.0633	-2988.73
0.9933,0.0067	-2932.89
0.9587,0.0413	-2966.39
0.9518,0.0482	-2961.28
0.9426,0.0574	-2988.33
0.9642,0.0358	-2965.93
0.9456,0.0544	-2999.63
0.9922,0.0078	-2952.32
0.9592,0.0408	-2969.50
0.9594,0.0406	-2966.32
0.9306,0.0694	-3002.29
0.9662,0.0338	-2972.52
0.9391,0.0609	-3002.22
0.9895,0.0105	-2933.28
0.9644,0.0356	-2962.61
0.9500,0.0500	-2996.96
0.9333,0.0667	-3028.60
0.9677,0.0323	-2979.35
0.9224,0.0776	-3005.17
0.9891,0.0109	-2937.85
0.9601,0.0399	-2988.52
0.9560,0.0440	-2963.62
0.9255,0.0745	-3022.66
0.9644,0.0356	-2946.12
0.9226,0.0774	-3000.21
0.9882,0.0118	-2973.36
0.9566,0.0434	-2969.72
0.9508,0.0492	-2976.28
0.9202,0.0798	-3010.19
0.9626,0.0374	-2966.03
0.9179,0.0821	-3029.60
0.9905,0.0095	-2933.13
0.9468,0.0532	-2985.29
0.9573,0.0427	-2975.88
0.9216,0.0784	-2997.83
0.9707,0.0293	-2955.20
0.9390,0.0610	-2983.08
0.9907,0.0093	-2928.45
0.9474,0.0526	-2993.94
0.9533,0.0467	-3003.24
0.9469,0.0531	-2982.41
0.9680,0.0320	-2972.56
0.9444,0.0556	-2991.08
0.9926,0.0074	-2952.50
0.9386,0.0614	-2988.58
0.9552,0.0448	-2988.22
0.9458,0.0542	-2996.78
0.9700,0.0300	-2958.75
0.9540,0.0460	-2973.02
0.9927,0.0073	-2952.58
0.9407,0.0593	-3010.55
0.9597,0.0403	-2988.49
0.9436,0.0564	-2985.47
0.9742,0.0258	-2965.79
0.9556,0.0444	-2991.30
0.9911,0.0089	-2942.49
0.9464,0.0536	-2979.57
0.9546,0.0454	-2969.92
0.9390,0.0610	-2988.55
0.9729,0.0271	-2955.00
0.9545,0.0455	-2991.23
0.9946,0.0054	-2932.88
0.9440,0.0560	-2960.03
0.9478,0.0522	-2988.15
0.9414,0.0586	-2963.42
0.9748,0.0252	-2965.82
0.9645,0.0355	-2965.91
0.9941,0.0059	-2932.87
0.9507,0.0493	-2973.33
0.9555,0.0445	-2988.23
0.9480,0.0520	-2982.34
0.9765,0.0235	-2958.49
0.9721,0.0279	-2955.06
0.9931,0.0069	-2947.80
0.9491,0.0509	-2973.50
0.9418,0.0582	-2982.81
0.9469,0.0531	-2982.41
0.9765,0.0235	-2958.49
0.9669,0.0331	-2959.03
0.9912,0.0088	-2928.32
0.9539,0.0461	-2979.08
0.9428,0.0572	-2985.52
0.9449,0.0551	-2976.86
0.9726,0.0274	-2955.02
0.9668,0.0332	-2969.16
0.9926,0.0074	-2937.83
0.9624,0.0376	-2985.51
0.9298,0.0702	-3004.90
0.9386,0.0614	-2991.31
0.9715,0.0285	-2958.65
0.9768,0.0232	-2943.52
0.9929,0.0071	-2947.74
0.9702,0.0298	-2962.22
0.9399,0.0601	-2982.99
0.9321,0.0679	-2997.01
0.9769,0.0231	-2977.21
0.9777,0.0223	-2939.60
0.9923,0.0077	-2952.39
0.9737,0.0263	-2965.77
0.9385,0.0615	-2980.41
0.9071,0.0929	-3011.02
0.9764,0.0236	-2973.39
0.9806,0.0194	-2958.64
0.9944,0.0056	-2927.70
0.9733,0.0267	-2954.96
0.9379,0.0621	-3002.21
0.9064,0.0936	-3029.25
0.9757,0.0243	-2943.72
0.9833,0.0167	-2962.99
0.9950,0.0050	-2932.90
0.9779,0.0221	-2950.92
0.9347,0.0653	-2996.88
0.9031,0.0969	-3013.63
0.9784,0.0216	-2950.89
0.9858,0.0142	-2942.42
0.9936,0.0064	-2942.96
0.9801,0.0199	-2943.02
0.9338,0.0662	-3004.86
0.9141,0.0859	-3003.40
0.9766,0.0234	-2947.29
0.9836,0.0164	-2942.59
0.9931,0.0069	-2937.86
0.9800,0.0200	-2958.59
0.9399,0.0601	-2969.23
0.9169,0.0831	-3003.13
0.9725,0.0275	-2955.03
0.9822,0.0178	-2950.76
0.9917,0.0083	-2942.56
0.9802,0.0198	-2943.00
0.9469,0.0531	-2991.05
0.9140,0.0860	-3027.05
0.9764,0.0236	-2973.38
0.9821,0.0179	-2942.75
0.9905,0.0095	-2942.43
0.9726,0.0274	-2965.73
0.9499,0.0501	-2999.89
0.9316,0.0684	-2991.82
0.9820,0.0180	-2958.76
0.9838,0.0162	-2938.46
0.9916,0.0084	-2937.78
0.9702,0.0298	-2958.74
0.9519,0.0481	-2967.23
0.9361,0.0639	-3004.88
0.9838,0.0162	-2954.89
0.9815,0.0185	-2942.82
0.9922,0.0078	-2932.96
0.9708,0.0292	-2958.70
0.9592,0.0408	-2956.87
0.9343,0.0657	-3004.86
0.9837,0.0163	-2946.68
0.9837,0.0163	-2963.08
0.9910,0.0090	-2942.48
0.9728,0.0272	-2947.84
0.9617,0.0383	-2959.66
0.9418,0.0582	-3007.87
0.9854,0.0146	-2938.23
0.9840,0.0160	-2950.79
0.9896,0.0104	-2942.37
0.9745,0.0255	-2947.58
0.9649,0.0351	-2972.51
0.9285,0.0715	-2986.97
0.9784,0.0216	-2943.27
0.9815,0.0185	-2942.82
0.9901,0.0099	-2933.19
0.9690,0.0310	-2958.84
0.9707,0.0293	-2958.71
0.9266,0.0734	-3007.52
0.9780,0.0220	-2954.71
0.9829,0.0171	-2950.76
0.9864,0.0136	-2942.39
0.9677,0.0323	-2965.75
0.9681,0.0319	-2958.92
0.9262,0.0738	-3012.59
0.9743,0.0257	-2973.07
0.9813,0.0187	-2946.81
0.9843,0.0157	-2942.52
0.9680,0.0320	-2958.93
0.9610,0.0390	-2969.38
0.9358,0.0642	-2986.12
0.9704,0.0296	-2955.23
0.9809,0.0191	-2962.60
0.9829,0.0171	-2946.71
0.9692,0.0308	-2962.27
0.9627,0.0373	-2969.28
0.9391,0.0609	-2991.28
0.9744,0.0256	-2947.61
0.9771,0.0229	-2939.72
0.9833,0.0167	-2967.06
0.9690,0.0310	-2962.28
0.9649,0.0351	-2979.14
0.9223,0.0777	-2995.28
0.9680,0.0320	-2965.74
0.9785,0.0215	-2950.88
0.9828,0.0172	-2950.76
0.9508,0.0492	-2988.13
0.9628,0.0372	-2959.52
0.9369,0.0631	-2996.80
0.9682,0.0318	-2962.33
0.9764,0.0236	-2951.04
0.9793,0.0207	-2966.27
0.9510,0.0490	-2988.13
0.9645,0.0355	-2972.51
0.9415,0.0585	-2988.39
0.9734,0.0266	-2965.75
0.9800,0.0200	-2954.70
0.9776,0.0224	-2943.39
0.9529,0.0471	-2976.12
0.9619,0.0381	-2982.24
0.9352,0.0648	-2991.52
0.9717,0.0283	-2948.04
0.9789,0.0211	-2973.88
0.9726,0.0274	-2969.30
0.9534,0.0466	-2979.11
0.9622,0.0378	-2959.60
0.9468,0.0532	-2979.54
0.9704,0.0296	-2965.71
0.9815,0.0185	-2942.83
0.9716,0.0284	-2951.59
0.9530,0.0470	-2988.15
0.9654,0.0346	-2965.86
0.9468,0.0532	-2991.05
0.9759,0.0241	-2954.79
0.9803,0.0197	-2939.08
0.9776,0.0224	-2962.27
0.9366,0.0634	-2986.05
0.9712,0.0288	-2969.23
0.9353,0.0647	-2994.19
0.9726,0.0274	-2965.73
0.9810,0.0190	-2950.78
0.9729,0.0271	-2951.41
0.9428,0.0572	-3010.74
0.9715,0.0285	-2979.82
0.9386,0.0614	-3007.67
0.9755,0.0245	-2951.13
0.9821,0.0179	-2942.75
0.9679,0.0321	-2962.34
0.9468,0.0532	-2991.05
0.9662,0.0338	-2955.75
0.9515,0.0485	-2979.20
0.9709,0.0291	-2962.20
0.9839,0.0161	-2946.67
0.9691,0.0309	-2958.83
0.9499,0.0501	-2979.30
0.9648,0.0352	-2972.51
0.9549,0.0451	-2985.15
0.9648,0.0352	-2962.58
0.9832,0.0168	-2946.70
0.9665,0.0335	-2952.36
0.9420,0.0580	-2993.94
0.9633,0.0367	-2959.45
0.9545,0.0455	-2979.06
0.9693,0.0307	-2965.72
0.9807,0.0193	-2954.71
0.9650,0.0350	-2965.88
0.9353,0.0647	-2994.19
0.9704,0.0296	-2955.24
0.9583,0.0417	-3000.92
0.9704,0.0296	-2951.74
0.9817,0.0183	-2958.73
0.9675,0.0325	-2979.33
0.9223,0.0777	-3002.70
0.9713,0.0287	-2972.75
0.9532,0.0468	-2973.09
0.9771,0.0229	-2950.99
0.9818,0.0182	-2954.75
0.9646,0.0354	-2975.81
0.9274,0.0726	-2984.58
0.9657,0.0343	-2962.50
0.9603,0.0397	-2988.53
0.9765,0.0235	-2947.30
0.9847,0.0153	-2954.99
0.9626,0.0374	-2969.29
0.9331,0.0669	-3015.40
0.9649,0.0351	-2965.88
0.9623,0.0377	-2972.54
0.9788,0.0212	-2954.70
0.9888,0.0112	-2942.35
0.9701,0.0299	-2955.26
0.9359,0.0641	-3004.88
0.9600,0.0400	-2978.98
0.9644,0.0356	-2979.11
0.9779,0.0221	-2962.30
0.9874,0.0126	-2951.08
0.9636,0.0364	-2959.41
0.9377,0.0623	-2985.93
0.9648,0.0352	-2975.82
0.9572,0.0428	-2966.56
0.9741,0.0259	-2951.28
0.9855,0.0145	-2950.87
0.9600,0.0400	-2991.69
0.9283,0.0717	-3004.93
0.9626,0.0374	-2966.04
0.9611,0.0389	-2982.20
0.9744,0.0256	-2958.52
0.9849,0.0151	-2938.30
0.9559,0.0441	-2982.09
0.9486,0.0514	-2982.31
0.9664,0.0336	-2969.16
0.9671,0.0329	-2959.01
0.9758,0.0242	-2947.41
0.9848,0.0152	-2950.83
0.9573,0.0427	-2975.87
0.9532,0.0468	-2997.19
0.9631,0.0369	-2956.22
0.9589,0.0411	-2978.97
0.9762,0.0238	-2947.35
0.9866,0.0134	-2942.38
0.9525,0.0475	-2985.14
0.9545,0.0455	-2985.15
0.9571,0.0429	-2963.46
0.9492,0.0508	-3008.63
0.9799,0.0201	-2970.24
0.9831,0.0169	-2954.83
0.9417,0.0583	-2988.38
0.9608,0.0392	-2969.39
0.9565,0.0435	-2969.73
0.9539,0.0461	-2979.08
0.9831,0.0169	-2942.64
0.9849,0.0151	-2950.84
0.9457,0.0543	-2985.35
0.9573,0.0427	-2963.44
0.9669,0.0331	-2959.03
0.9577,0.0423	-2994.58
0.9840,0.0160	-2954.91
0.9812,0.0188	-2954.73
0.9484,0.0516	-2985.23
0.9527,0.0473	-2967.12
0.9605,0.0395	-2953.46
0.9509,0.0491	-2967.38
0.9806,0.0194	-2942.94
0.9846,0.0154	-2946.66
0.9590,0.0410	-2991.58
0.9524,0.0476	-2970.16
0.9579,0.0421	-2978.98
0.9562,0.0438	-2975.93
0.9694,0.0306	-2962.26
0.9867,0.0133	-2946.68
0.9659,0.0341	-2965.83
0.9564,0.0436	-2979.00
0.9640,0.0360	-2959.36
0.9536,0.0464	-2994.21
0.9663,0.0337	-2952.39
0.9883,0.0117	-2951.21
0.9694,0.0306	-2969.17
0.9636,0.0364	-2959.41
0.9681,0.0319	-2952.09
0.9549,0.0451	-2979.04
0.9681,0.0319	-2958.92
0.9873,0.0127	-2938.00
0.9717,0.0283	-2983.39
0.9609,0.0391	-2972.58
0.9677,0.0323	-2952.16
0.9574,0.0426	-2978.98
0.9664,0.0336	-2975.88
0.9861,0.0139	-2967.95
0.9709,0.0291	-2962.20
0.9706,0.0294	-2948.23
0.9617,0.0383	-2975.78
0.9620,0.0380	-2953.15
0.9594,0.0406	-2975.81
0.9855,0.0145	-2946.65
0.9728,0.0272	-2987.19
0.9697,0.0303	-2948.38
0.9596,0.0404	-2963.13
0.9689,0.0311	-2979.48
0.9550,0.0450	-2966.82
0.9823,0.0177	-2954.78
0.9768,0.0232	-2962.23
0.9658,0.0342	-2979.20
0.9669,0.0331	-2955.65
0.9630,0.0370	-2969.27
0.9552,0.0448	-2975.98
0.9831,0.0169	-2930.45
0.9826,0.0174	-2950.76
0.9631,0.0369	-2962.74
0.9721,0.0279	-2955.07
0.9529,0.0471	-2985.14
0.9534,0.0466	-2994.20
0.9858,0.0142	-2946.66
0.9846,0.0154	-2946.66
0.9589,0.0411	-2978.97
0.9747,0.0253	-2947.55
0.9505,0.0495	-2973.35
0.9564,0.0436	-2997.53
0.9878,0.0122	-2951.14
0.9845,0.0155	-2942.51
0.9567,0.0433	-2966.62
0.9795,0.0205	-2958.56
0.9484,0.0516	-2982.32
0.9531,0.0469	-2985.14
0.9872,0.0128	-2942.36
0.9842,0.0158	-2946.67
0.9445,0.0555	-2988.25
0.9769,0.0231	-2965.98
0.9559,0.0441	-2985.17
0.9575,0.0425	-2985.21
0.9844,0.0156	-2946.66
0.9834,0.0166	-2938.53
0.9530,0.0470	-2973.10
0.9767,0.0233	-2965.96
0.9562,0.0438	-2982.09
0.9562,0.0438	-2979.01
0.9824,0.0176	-2938.70
0.9834,0.0166	-2954.86
0.9558,0.0442	-2982.09
0.9825,0.0175	-2954.79
0.9542,0.0458	-2963.88
0.9651,0.0349	-2965.87
0.9831,0.0169	-2954.83
0.9863,0.0137	-2942.39
0.9626,0.0374	-2969.29
0.9789,0.0211	-2950.86
0.9483,0.0517	-2964.86
0.9714,0.0286	-2941.03
0.9743,0.0257	-2973.07
0.9790,0.0210	-2962.38
0.9618,0.0382	-2972.56
0.9707,0.0293	-2969.21
0.9518,0.0482	-2988.13
0.9682,0.0318	-2993.06
0.9746,0.0254	-2951.22
0.9829,0.0171	-2938.60
0.9538,0.0462	-2988.17
0.9725,0.0275	-2965.73
0.9526,0.0474	-2973.14
0.9678,0.0322	-2948.73
0.9705,0.0295	-2951.73
0.9809,0.0191	-2962.60
0.9579,0.0421	-2960.23
0.9774,0.0226	-2947.20
0.9567,0.0433	-2963.52
0.9724,0.0276	-2947.91
0.9666,0.0334	-2969.16
0.9842,0.0158	-2946.66
0.9446,0.0554	-2996.75
0.9807,0.0193	-2946.85
0.9545,0.0455	-2985.15
0.9759,0.0241	-2951.09
0.9690,0.0310	-2965.72
0.9836,0.0164	-2954.87
0.9344,0.0656	-2988.93
0.9817,0.0183	-2954.75
0.9580,0.0420	-2975.85
0.9753,0.0247	-2976.88
0.9665,0.0335	-2975.89
0.9822,0.0178	-2954.77
0.9375,0.0625	-3007.62
0.9813,0.0187	-2954.73
0.9606,0.0394	-2975.79
0.9736,0.0264	-2958.55
0.9581,0.0419	-2966.46
0.9818,0.0182	-2954.75
0.9266,0.0734	-3002.45
0.9772,0.0228	-2947.22
0.9643,0.0357	-2985.69
0.9735,0.0265	-2954.95
0.9564,0.0436	-2979.00
0.9836,0.0164	-2950.78
0.9440,0.0560	-2976.97
0.9796,0.0204	-2950.83
0.9706,0.0294	-2965.70
0.9681,0.0319	-2965.74
0.9591,0.0409	-2978.97
0.9850,0.0150	-2959.22
0.9471,0.0529	-2985.28
0.9822,0.0178	-2974.84
0.9718,0.0282	-2965.71
0.9705,0.0295	-2969.20
0.9592,0.0408	-2969.50
0.9814,0.0186	-2954.73
0.9455,0.0545	-2979.65
0.9836,0.0164	-2934.40
0.9727,0.0273	-2958.59
0.9678,0.0322	-2952.14
0.9620,0.0380	-2972.55
0.9801,0.0199	-2946.91
0.9598,0.0402	-2975.80
0.9833,0.0167	-2950.77
0.9700,0.0300	-2958.75
0.9650,0.0350	-2965.88
0.9590,0.0410	-2972.67
0.9813,0.0187	-2958.69
0.9602,0.0398	-2966.25
0.9819,0.0181	-2958.75
0.9750,0.0250	-2965.83
0.9610,0.0390	-2959.77
0.9578,0.0422	-2963.37
0.9809,0.0191	-2954.72
0.9585,0.0415	-2978.97
0.9756,0.0244	-2951.11
0.9770,0.0230	-2962.24
0.9629,0.0371	-2959.51
0.9607,0.0393	-2978.98
0.9781,0.0219	-2947.11
0.9474,0.0526	-2967.91
0.9749,0.0251	-2951.19
0.9756,0.0244	-2958.50
0.9673,0.0327	-2962.38
0.9685,0.0315	-2969.16
0.9788,0.0212	-2939.37
0.9479,0.0521	-2973.65
0.9750,0.0250	-2962.17
0.9748,0.0252	-2969.48
0.9674,0.0326	-2979.32
0.9671,0.0329	-2962.40
0.9782,0.0218	-2962.32
0.9253,0.0747	-2994.96
0.9703,0.0297	-2993.59
0.9770,0.0230	-2954.74
0.9734,0.0266	-2958.55
0.9729,0.0271	-2958.58
0.9800,0.0200	-2939.14
0.9178,0.0822	-3007.88
0.9750,0.0250	-2951.17
0.9773,0.0227	-2943.44
0.9688,0.0312	-2965.72
0.9702,0.0298	-2948.29
0.9847,0.0153	-2954.98
0.9157,0.0843	-2993.71
0.9769,0.0231	-2954.75
0.9798,0.0202	-2939.17
0.9719,0.0281	-2965.71
0.9732,0.0268	-2954.97
0.9733,0.0267	-2947.77
0.9153,0.0847	-3022.32
0.9792,0.0208	-2970.11
0.9798,0.0202	-2950.82
0.9699,0.0301	-2962.24
0.9724,0.0276	-2947.92
0.9727,0.0273	-2955.01
0.9339,0.0661	-3002.21
0.9736,0.0264	-2976.58
0.9794,0.0206	-2950.83
0.9691,0.0309	-2955.38
0.9821,0.0179	-2946.75
0.9796,0.0204	-2950.83
0.9324,0.0676	-2999.62
0.9732,0.0268	-2965.75
0.9805,0.0195	-2962.54
0.9718,0.0282	-2944.47
0.9843,0.0157	-2938.39
0.9809,0.0191	-2950.78
0.9159,0.0841	-3000.84
0.9778,0.0222	-2973.65
0.9764,0.0236	-2943.59
0.9700,0.0300	-2965.71
0.9832,0.0168	-2962.97
0.9788,0.0212	-2954.70
0.9173,0.0827	-3005.51
0.9785,0.0215	-2958.52
0.9754,0.0246	-2943.78
0.9753,0.0247	-2943.79
0.9801,0.0199	-2946.91
0.9774,0.0226	-2947.20
0.9440,0.0560	-2988.27
0.9840,0.0160	-2946.67
0.9674,0.0326	-2965.76
0.9792,0.0208	-2954.70
0.9809,0.0191	-2962.60
0.9773,0.0227	-2966.02
0.9528,0.0472	-2958.09
0.9806,0.0194	-2942.94
0.9676,0.0324	-2958.96
0.9847,0.0153	-2934.16
0.9784,0.0216	-2947.08
0.9748,0.0252	-2951.20
0.9625,0.0375	-2985.51
0.9777,0.0223	-2966.06
0.9689,0.0311	-2962.29
0.9859,0.0141	-2950.91
0.9765,0.0235	-2962.22
0.9712,0.0288	-2972.74
0.9708,0.0292	-2955.19
0.9780,0.0220	-2962.30
0.9727,0.0273	-2955.01
0.9855,0.0145	-2942.43
0.9832,0.0168	-2930.43
0.9784,0.0216	-2966.15
0.9748,0.0252	-2951.20
0.9813,0.0187	-2950.77
0.9697,0.0303	-2962.24
0.9861,0.0139	-2946.66
0.9818,0.0182	-2946.77
0.9750,0.0250	-2947.51
0.9779,0.0221	-2966.08
0.9819,0.0181	-2938.78
0.9759,0.0241	-2962.19
0.9816,0.0184	-2946.79
0.9813,0.0187	-2946.81
0.9772,0.0228	-2977.29
0.9845,0.0155	-2946.66
0.9803,0.0197	-2946.89
0.9785,0.0215	-2958.52
0.9771,0.0229	-2943.48
0.9802,0.0198	-2946.90
0.9806,0.0194	-2958.64
0.9881,0.0119	-2937.93
0.9820,0.0180	-2954.76
0.9778,0.0222	-2954.72
0.9780,0.0220	-2962.30
0.9775,0.0225	-2954.73
0.9783,0.0217	-2958.52
0.9909,0.0091	-2933.09
0.9858,0.0142	-2946.66
0.9793,0.0207	-2943.12
0.9781,0.0219	-2947.11
0.9749,0.0251	-2958.51
0.9780,0.0220	-2966.10
0.9906,0.0094	-2937.79
0.9848,0.0152	-2963.35
0.9774,0.0226	-2943.43
0.9743,0.0257	-2969.43
0.9708,0.0292	-2951.69
0.9718,0.0282	-2965.71
0.9890,0.0110	-2937.86
0.9775,0.0225	-2943.40
0.9784,0.0216	-2962.33
0.9729,0.0271	-2962.16
0.9764,0.0236	-2977.11
0.9752,0.0248	-2958.50
0.9903,0.0097	-2937.79
0.9776,0.0224	-2973.60
0.9747,0.0253	-2954.86
0.9771,0.0229	-2947.23
0.9742,0.0258	-2954.89
0.9796,0.0204	-2962.44
0.9912,0.0088	-2951.94
0.9800,0.0200	-2954.70
0.9703,0.0297	-2955.24
0.9760,0.0240	-2951.08
0.9727,0.0273	-2969.30
0.9774,0.0226	-2950.96
0.9896,0.0104	-2951.48
0.9800,0.0200	-2950.81
0.9737,0.0263	-2940.48
0.9760,0.0240	-2951.08
0.9797,0.0203	-2954.70
0.9794,0.0206	-2950.84
0.9870,0.0130	-2959.67
0.9840,0.0160	-2942.55
0.9754,0.0246	-2951.14
0.9779,0.0221	-2950.92
0.9770,0.0230	-2962.24
0.9813,0.0187	-2934.92
0.9910,0.0090	-2942.49
0.9842,0.0158	-2946.67
0.9712,0.0288	-2951.63
0.9747,0.0253	-2958.51
0.9785,0.0215	-2981.43
0.9821,0.0179	-2946.76
0.9904,0.0096	-2933.15
0.9863,0.0137	-2946.67
0.9678,0.0322	-2996.38
0.9728,0.0272	-2962.16
0.9832,0.0168	-2938.56
0.9801,0.0199	-2946.91
0.9860,0.0140	-2933.90
0.9815,0.0185	-2946.79
0.9747,0.0253	-2954.86
0.9760,0.0240	-2958.49
0.9808,0.0192	-2950.78
0.9794,0.0206	-2946.97
0.9800,0.0200	-2958.59
0.9855,0.0145	-2929.78
0.9717,0.0283	-2965.71
0.9724,0.0276	-2965.72
0.9805,0.0195	-2946.87
0.9798,0.0202	-2943.06
0.9847,0.0153	-2946.66
0.9825,0.0175	-2938.69
0.9710,0.0290	-2965.71
0.9774,0.0226	-2954.73
0.9794,0.0206	-2943.12
0.9815,0.0185	-2966.66
0.9852,0.0148	-2950.85
0.9812,0.0188	-2962.64
0.9707,0.0293	-2962.21
0.9797,0.0203	-2954.70
0.9768,0.0232	-2951.01
0.9827,0.0173	-2946.72
0.9847,0.0153	-2950.82
0.9826,0.0174	-2946.73
0.9757,0.0243	-2951.11
0.9811,0.0189	-2942.88
0.9773,0.0227	-2958.49
0.9834,0.0166	-2942.61
0.9856,0.0144	-2938.20
0.9826,0.0174	-2958.83
0.9753,0.0247	-2954.82
0.9830,0.0170	-2946.71
0.9752,0.0248	-2954.83
0.9843,0.0157	-2950.80
0.9850,0.0150	-2946.65
0.9840,0.0160	-2950.79
0.9794,0.0206	-2946.98
0.9825,0.0175	-2942.70
0.9727,0.0273	-2976.46
0.9850,0.0150	-2955.03
0.9790,0.0210	-2950.86
0.9855,0.0145	-2950.88
0.9710,0.0290	-2955.17
0.9814,0.0186	-2950.77
0.9732,0.0268	-2958.56
0.9865,0.0135	-2950.97
0.9782,0.0218	-2939.49
0.9865,0.0135	-2946.67
0.9745,0.0255	-2965.80
0.9800,0.0200	-2935.24
0.9722,0.0278	-2976.38
0.9858,0.0142	-2938.17
0.9763,0.0237	-2962.21
0.9884,0.0116	-2951.23
0.9781,0.0219	-2969.90
0.9781,0.0219	-2962.31
0.9773,0.0227	-2962.25
0.9843,0.0157	-2942.53
0.9750,0.0250	-2962.17
0.9892,0.0108	-2937.84
0.9797,0.0203	-2950.82
0.9776,0.0224	-2943.39
0.9783,0.0217	-2943.28
0.9868,0.0132	-2946.68
0.9768,0.0232	-2980.93
0.9875,0.0125	-2942.35
0.9804,0.0196	-2950.79
0.9787,0.0213	-2943.21
0.9814,0.0186	-2962.66
0.9832,0.0168	-2950.77
0.9739,0.0261	-2944.05
0.9876,0.0124	-2946.73
0.9804,0.0196	-2950.79
0.9740,0.0260	-2969.40
0.9812,0.0188	-2942.86
0.9833,0.0167	-2942.62
0.9678,0.0322	-2962.35
0.9861,0.0139	-2946.66
0.9768,0.0232	-2965.97
0.9724,0.0276	-2972.85
0.9774,0.0226	-2950.96
0.9794,0.0206	-2954.70
0.9647,0.0353	-2972.51
0.9855,0.0145	-2938.22
0.9723,0.0277	-2972.84
0.9766,0.0234	-2951.03
0.9785,0.0215	-2958.52
0.9775,0.0225	-2966.04
0.9631,0.0369	-2975.79
0.9827,0.0173	-2938.63
0.9744,0.0256	-2965.80
0.9752,0.0248	-2951.15
0.9851,0.0149	-2963.42
0.9774,0.0226	-2954.73
0.9649,0.0351	-2959.25
0.9821,0.0179	-2954.77
0.9769,0.0231	-2973.46
0.9744,0.0256	-2951.25
0.9810,0.0190	-2946.83
0.9794,0.0206	-2966.28
0.9561,0.0439	-2979.01
0.9825,0.0175	-2950.76
0.9758,0.0242	-2962.19
0.9738,0.0262	-2947.70
0.9800,0.0200	-2950.81
0.9856,0.0144	-2938.21
0.9449,0.0551	-2974.02
0.9865,0.0135	-2938.09
0.9822,0.0178	-2950.76
0.9721,0.0279	-2940.87
0.9819,0.0181	-2954.75
0.9848,0.0152	-2967.51
0.9474,0.0526	-2962.13
0.9864,0.0136	-2950.96
0.9852,0.0148	-2942.46
0.9791,0.0209	-2947.00
0.9825,0.0175	-2958.82
0.9855,0.0145	-2955.09
0.9445,0.0555	-2965.57
0.9861,0.0139	-2942.40
0.9811,0.0189	-2946.82
0.9813,0.0187	-2970.56
0.9844,0.0156	-2942.52
0.9817,0.0183	-2954.74
0.9468,0.0532	-2982.41
0.9864,0.0136	-2938.10
0.9823,0.0177	-2958.80
0.9807,0.0193	-2966.49
0.9853,0.0147	-2942.45
0.9807,0.0193	-2939.00
0.9389,0.0611	-2994.02
0.9854,0.0146	-2938.23
0.9808,0.0192	-2938.98
0.9806,0.0194	-2966.47
0.9868,0.0132	-2946.69
0.9815,0.0185	-2950.77
0.9453,0.0547	-2991.07
0.9841,0.0159	-2971.42
0.9825,0.0175	-2950.76
0.9825,0.0175	-2966.87
0.9892,0.0108	-2933.32
0.9791,0.0209	-2950.85
0.9440,0.0560	-2996.74
0.9838,0.0162	-2942.57
0.9820,0.0180	-2942.76
0.9846,0.0154	-2942.50
0.9887,0.0113	-2937.87
0.9757,0.0243	-2958.49
0.9540,0.0460	-2973.01
0.9838,0.0162	-2963.10
0.9799,0.0201	-2950.81
0.9846,0.0154	-2954.97
0.9881,0.0119	-2933.50
0.9781,0.0219	-2954.71
0.9643,0.0357	-2975.81
0.9839,0.0161	-2946.67
0.9827,0.0173	-2974.99
0.9851,0.0149	-2934.08
0.9877,0.0123	-2942.35
0.9791,0.0209	-2939.31
0.9631,0.0369	-2975.79
0.9832,0.0168	-2950.77
0.9839,0.0161	-2950.79
0.9879,0.0121	-2942.35
0.9860,0.0140	-2950.92
0.9784,0.0216	-2950.89
0.9579,0.0421	-3003.98
0.9874,0.0126	-2933.64
0.9839,0.0161	-2954.90
0.9879,0.0121	-2942.35
0.9816,0.0184	-2990.53
0.9818,0.0182	-2958.74
0.9632,0.0368	-2969.26
0.9859,0.0141	-2946.66
0.9835,0.0165	-2950.78
0.9850,0.0150	-2950.84
0.9825,0.0175	-2958.82
0.9829,0.0171	-2942.66
0.9661,0.0339	-2975.87
0.9858,0.0142	-2955.14
0.9840,0.0160	-2959.02
0.9867,0.0133	-2942.37
0.9852,0.0148	-2942.46
0.9799,0.0201	-2954.70
0.9682,0.0318	-2979.40
0.9832,0.0168	-2967.06
0.9838,0.0162	-2930.26
0.9881,0.0119	-2960.02
0.9852,0.0148	-2946.65
0.9791,0.0209	-2950.85
0.9657,0.0343	-2965.84
0.9860,0.0140	-2942.40
0.9868,0.0132	-2942.37
0.9904,0.0096	-2928.52
0.9823,0.0177	-2974.85
0.9765,0.0235	-2954.76
0.9654,0.0346	-2969.18
0.9876,0.0124	-2951.10
0.9881,0.0119	-2946.77
0.9883,0.0117	-2942.34
0.9833,0.0167	-2942.62
0.9620,0.0380	-2966.09
0.9592,0.0408	-2978.97
0.9868,0.0132	-2938.05
0.9880,0.0120	-2955.58
0.9909,0.0091	-2942.47
0.9823,0.0177	-2950.76
0.9673,0.0327	-2979.32
0.9661,0.0339	-2962.47
0.9901,0.0099	-2947.01
0.9876,0.0124	-2959.86
0.9905,0.0095	-2942.43
0.9828,0.0172	-2962.89
0.9708,0.0292	-2965.70
0.9644,0.0356	-2985.71
0.9907,0.0093	-2933.11
0.9890,0.0110	-2933.35
0.9870,0.0130	-2933.70
0.9800,0.0200	-2943.03
0.9774,0.0226	-2966.03
0.9607,0.0393	-2972.59
0.9871,0.0129	-2933.69
0.9902,0.0098	-2942.41
0.9904,0.0096	-2933.15
0.9748,0.0252	-2947.54
0.9820,0.0180	-2954.76
0.9658,0.0342	-2965.83
0.9854,0.0146	-2942.44
0.9901,0.0099	-2951.62
0.9875,0.0125	-2942.35
0.9713,0.0287	-2955.14
0.9837,0.0163	-2946.68
0.9661,0.0339	-2962.47
0.9884,0.0116	-2951.23
0.9902,0.0098	-2937.80
0.9871,0.0129	-2942.36
0.9660,0.0340	-2985.91
0.9845,0.0155	-2963.27
0.9691,0.0309	-2958.82
0.9882,0.0118	-2946.77
0.9908,0.0092	-2942.46
0.9834,0.0166	-2942.61
0.9662,0.0338	-2969.17
0.9789,0.0211	-2943.19
0.9712,0.0288	-2955.15
0.9872,0.0128	-2946.70
0.9916,0.0084	-2942.55
0.9828,0.0172	-2942.67
0.9686,0.0314	-2955.44
0.9812,0.0188	-2946.82
0.9753,0.0247	-2951.14
0.9878,0.0122	-2942.35
0.9924,0.0076	-2932.94
0.9812,0.0188	-2938.90
0.9775,0.0225	-2958.50
0.9812,0.0188	-2946.81
0.9778,0.0222	-2962.29
0.9882,0.0118	-2951.19
0.9900,0.0100	-2942.40
0.9817,0.0183	-2938.82
0.9769,0.0231	-2969.73
0.9820,0.0180	-2962.75
0.9797,0.0203	-2974.07
0.9897,0.0103	-2942.38
0.9904,0.0096	-2933.16
0.9782,0.0218	-2954.71
0.9770,0.0230	-2954.74
0.9834,0.0166	-2938.53
0.9787,0.0213	-2947.05
0.9915,0.0085	-2947.29
0.9905,0.0095	-2937.79
0.9865,0.0135	-2946.67
0.9792,0.0208	-2943.15
0.9846,0.0154	-2934.18
0.9764,0.0236	-2947.32
0.9903,0.0097	-2942.42
0.9916,0.0084	-2942.56
0.9868,0.0132	-2946.68
0.9800,0.0200	-2954.70
0.9832,0.0168	-2954.84
0.9687,0.0313	-2969.16
0.9879,0.0121	-2929.13
0.9913,0.0087	-2951.98
0.9863,0.0137	-2938.11
0.9788,0.0212	-2962.36
0.9810,0.0190	-2962.61
0.9648,0.0352	-2952.65
0.9899,0.0101	-2933.22
0.9926,0.0074	-2942.72
0.9894,0.0106	-2946.91
0.9778,0.0222	-2954.72
0.9835,0.0165	-2946.69
0.9672,0.0328	-2952.24
0.9909,0.0091	-2947.17
0.9917,0.0083	-2952.12
0.9885,0.0115	-2942.35
0.9806,0.0194	-2950.79
0.9773,0.0227	-2954.73
0.9762,0.0238	-2969.63
0.9894,0.0106	-2942.37
0.9940,0.0060	-2937.98
0.9890,0.0110	-2928.87
0.9781,0.0219	-2954.71
0.9799,0.0201	-2946.93
0.9727,0.0273	-2955.02
0.9898,0.0102	-2937.81
0.9954,0.0046	-2927.55
0.9877,0.0123	-2946.73
0.9807,0.0193	-2950.78
0.9796,0.0204	-2977.93
0.9747,0.0253	-2951.20
0.9895,0.0105	-2937.82
0.9959,0.0041	-2927.50
0.9875,0.0125	-2937.98
0.9798,0.0202	-2962.46
0.9788,0.0212	-2962.36
0.9797,0.0203	-2958.58
0.9897,0.0103	-2946.95
0.9972,0.0028	-2927.44
0.9893,0.0107	-2933.32
0.9773,0.0227	-2958.49
0.9820,0.0180	-2942.76
0.9825,0.0175	-2946.73
0.9880,0.0120	-2937.93
0.9973,0.0027	-2933.36
0.9887,0.0113	-2933.40
0.9790,0.0210	-2950.86
0.9830,0.0170	-2962.93
0.9841,0.0159	-2942.54
0.9881,0.0119	-2933.50
0.9976,0.0024	-2927.46
0.9907,0.0093	-2947.11
0.9752,0.0248	-2951.15
0.9844,0.0156	-2934.22
0.9801,0.0199	-2939.11
0.9830,0.0170	-2946.71
0.9976,0.0024	-2939.53
0.9912,0.0088	-2937.78
0.9736,0.0264	-2969.37
0.9858,0.0142	-2933.94
0.9790,0.0210	-2954.70
0.9792,0.0208	-2946.99
0.9971,0.0029	-2933.28
0.9933,0.0067	-2942.89
0.9683,0.0317	-2962.32
0.9831,0.0169	-2942.64
0.9817,0.0183	-2958.73
0.9725,0.0275	-2940.77
0.9969,0.0031	-2933.22
0.9933,0.0067	-2927.90
0.9713,0.0287	-2972.75
0.9857,0.0143	-2933.96
0.9836,0.0164	-2954.87
0.9731,0.0269	-2965.74
0.9968,0.0032	-2938.91
0.9928,0.0072	-2937.85
0.9682,0.0318	-2969.16
0.9856,0.0144	-2946.66
0.9836,0.0164	-2958.96
0.9675,0.0325	-2969.15
0.9976,0.0024	-2927.46
0.9924,0.0076	-2937.82
0.9670,0.0330	-2969.16
0.9884,0.0116	-2933.46
0.9846,0.0154	-2942.50
0.9659,0.0341	-2962.48
0.9968,0.0032	-2933.19
0.9895,0.0105	-2942.37
0.9617,0.0383	-2972.56
0.9899,0.0101	-2946.97
0.9860,0.0140	-2942.41
0.9708,0.0292	-2965.70
0.9967,0.0033	-2927.45
0.9906,0.0094	-2947.09
0.9661,0.0339	-2962.47
0.9884,0.0116	-2937.90
0.9863,0.0137	-2938.11
0.9635,0.0365	-2975.79
0.9966,0.0034	-2927.45
0.9896,0.0104	-2965.18
0.9735,0.0265	-2954.94
0.9882,0.0118	-2946.77
0.9875,0.0125	-2942.35
0.9651,0.0349	-2969.19
0.9965,0.0035	-2927.46
0.9905,0.0095	-2937.79
0.9732,0.0268	-2940.59
0.9901,0.0099	-2942.40
0.9869,0.0131	-2938.05
0.9694,0.0306	-2972.63
0.9954,0.0046	-2932.94
0.9866,0.0134	-2959.57
0.9699,0.0301	-2951.81
0.9873,0.0127	-2951.06
0.9904,0.0096	-2937.79
0.9671,0.0329	-2975.92
0.9954,0.0046	-2927.56
0.9838,0.0162	-2954.89
0.9772,0.0228	-2966.01
0.9869,0.0131	-2946.69
0.9881,0.0119	-2933.50
0.9570,0.0430	-2966.58
0.9954,0.0046	-2938.32
0.9815,0.0185	-2942.83
0.9771,0.0229	-2962.25
0.9822,0.0178	-2938.73
0.9853,0.0147	-2950.86
0.9586,0.0414	-2991.55
0.9953,0.0047	-2932.93
0.9802,0.0198	-2950.80
0.9799,0.0201	-2958.59
0.9857,0.0143	-2950.89
0.9829,0.0171	-2954.82
0.9572,0.0428	-2972.78
0.9959,0.0041	-2927.50
0.9822,0.0178	-2938.72
0.9833,0.0167	-2934.48
0.9819,0.0181	-2966.74
0.9864,0.0136	-2950.96
0.9524,0.0476	-2979.15
0.9954,0.0046	-2943.68
0.9812,0.0188	-2938.91
0.9859,0.0141	-2946.66
0.9810,0.0190	-2954.72
0.9874,0.0126	-2937.99
0.9559,0.0441	-2963.63
0.9955,0.0045	-2938.34
0.9818,0.0182	-2942.78
0.9855,0.0145	-2942.44
0.9828,0.0172	-2946.72
0.9876,0.0124	-2933.60
0.9541,0.0459	-2976.04
0.9942,0.0058	-2953.47
0.9851,0.0149	-2959.22
0.9849,0.0151	-2946.66
0.9835,0.0165	-2946.69
0.9830,0.0170	-2958.88
0.9513,0.0487	-2964.35
0.9950,0.0050	-2938.18
0.9820,0.0180	-2954.76
0.9843,0.0157	-2934.26
0.9807,0.0193	-2970.43
0.9857,0.0143	-2946.66
0.9587,0.0413	-2985.26
0.9953,0.0047	-2932.92
0.9832,0.0168	-2946.70
0.9859,0.0141	-2929.66
0.9802,0.0198	-2954.70
0.9865,0.0135	-2946.67
0.9668,0.0332	-2955.67
0.9956,0.0044	-2932.95
0.9857,0.0143	-2959.35
0.9853,0.0147	-2955.07
0.9818,0.0182	-2938.81
0.9850,0.0150	-2929.93
0.9667,0.0333	-2972.53
0.9939,0.0061	-2932.87
0.9856,0.0144	-2950.88
0.9884,0.0116	-2937.90
0.9847,0.0153	-2979.96
0.9860,0.0140	-2942.40
0.9574,0.0426	-3000.77
0.9942,0.0058	-2932.87
0.9842,0.0158	-2938.41
0.9854,0.0146	-2942.45
0.9871,0.0129	-2951.04
0.9834,0.0166	-2950.77
0.9534,0.0466	-2967.03
0.9948,0.0052	-2938.14
0.9809,0.0191	-2958.66
0.9819,0.0181	-2938.78
0.9874,0.0126	-2933.63
0.9821,0.0179	-2954.77
0.9551,0.0449	-2985.15
0.9951,0.0049	-2932.91
0.9798,0.0202	-2950.82
0.9832,0.0168	-2938.56
0.9882,0.0118	-2942.34
0.9822,0.0178	-2962.79
0.9607,0.0393	-2972.59
0.9941,0.0059	-2927.75
0.9810,0.0190	-2942.88
0.9814,0.0186	-2950.77
0.9880,0.0120	-2937.93
0.9808,0.0192	-2946.85
0.9579,0.0421	-2982.10
0.9939,0.0061	-2937.97
0.9759,0.0241	-2962.19
0.9802,0.0198	-2950.80
0.9869,0.0131	-2946.69
0.9814,0.0186	-2950.77
0.9530,0.0470	-2961.06
0.9947,0.0053	-2927.65
0.9741,0.0259	-2962.16
0.9785,0.0215	-2954.70
0.9875,0.0125	-2955.46
0.9802,0.0198	-2958.60
0.9549,0.0451	-2979.04
0.9930,0.0070	-2937.85
0.9693,0.0307	-2962.26
0.9758,0.0242	-2943.71
0.9866,0.0134	-2942.38
0.9827,0.0173	-2954.80
0.9440,0.0560	-2996.74
0.9937,0.0063	-2937.94
0.9704,0.0296	-2958.72
0.9795,0.0205	-2943.09
0.9842,0.0158	-2963.20
0.9850,0.0150	-2955.03
0.9498,0.0502	-2985.19
0.9937,0.0063	-2932.88
0.9744,0.0256	-2965.80
0.9781,0.0219	-2962.31
0.9836,0.0164	-2954.87
0.9792,0.0208	-2946.99
0.9636,0.0364	-2962.69
0.9951,0.0049	-2932.91
0.9761,0.0239	-2947.36
0.9774,0.0226	-2954.73
0.9839,0.0161	-2946.67
0.9796,0.0204	-2939.20
0.9663,0.0337	-2962.45
0.9956,0.0044	-2943.82
0.9759,0.0241	-2954.79
0.9748,0.0252	-2954.85
0.9828,0.0172	-2954.81
0.9785,0.0215	-2943.25
0.9579,0.0421	-2966.48
0.9955,0.0045	-2938.35
0.9773,0.0227	-2958.49
0.9812,0.0188	-2934.95
0.9805,0.0195	-2954.71
0.9802,0.0198	-2946.90
0.9677,0.0323	-2948.75
0.9947,0.0053	-2927.65
0.9733,0.0267	-2958.56
0.9824,0.0176	-2946.74
0.9775,0.0225	-2962.27
0.9789,0.0211	-2950.86
0.9642,0.0358	-2962.64
0.9950,0.0050	-2927.60
0.9704,0.0296	-2976.17
0.9828,0.0172	-2942.67
0.9746,0.0254	-2943.93
0.9815,0.0185	-2950.77
0.9554,0.0446	-2982.09
0.9950,0.0050	-2927.61
0.9713,0.0287	-2951.62
0.9770,0.0230	-2962.24
0.9766,0.0234	-2973.41
0.9829,0.0171	-2954.82
0.9506,0.0494	-2991.08
0.9962,0.0038	-2927.48
0.9684,0.0316	-2969.16
0.9790,0.0210	-2950.85
0.9721,0.0279	-2962.17
0.9813,0.0187	-2958.69
0.9521,0.0479	-2985.15
0.9944,0.0056	-2943.24
0.9750,0.0250	-2954.84
0.9751,0.0249	-2954.83
0.9738,0.0262	-2973.01
0.9822,0.0178	-2946.75
0.9451,0.0549	-2991.07
0.9938,0.0062	-2937.96
0.9689,0.0311	-2969.16
0.9768,0.0232	-2958.49
0.9717,0.0283	-2972.79
0.9814,0.0186	-2958.70
0.9440,0.0560	-2985.44
0.9930,0.0070	-2947.78
0.9692,0.0308	-2962.27
0.9785,0.0215	-2950.89
0.9791,0.0209	-2950.85
0.9831,0.0169	-2946.70
0.9474,0.0526	-2967.92
0.9931,0.0069	-2937.86
0.9719,0.0281	-2944.46
0.9801,0.0199	-2950.80
0.9777,0.0223	-2962.28
0.9790,0.0210	-2943.16
0.9451,0.0549	-2999.61
0.9905,0.0095	-2947.08
0.9715,0.0285	-2962.18
0.9810,0.0190	-2950.78
0.9787,0.0213	-2947.05
0.9782,0.0218	-2962.31
0.9492,0.0508	-2973.50
0.9883,0.0117	-2933.47
0.9684,0.0316	-2958.89
0.9806,0.0194	-2942.94
0.9842,0.0158	-2950.80
0.9816,0.0184	-2958.72
0.9572,0.0428	-2960.34
0.9880,0.0120	-2933.53
0.9726,0.0274	-2951.46
0.9805,0.0195	-2950.79
0.9850,0.0150	-2942.47
0.9830,0.0170	-2950.76
0.9574,0.0426	-2960.31
0.9889,0.0111	-2942.35
0.9740,0.0260	-2962.15
0.9797,0.0203	-2943.06
0.9863,0.0137	-2950.95
0.9793,0.0207	-2946.99
0.9529,0.0471	-2985.14
0.9893,0.0107	-2942.36
0.9776,0.0224	-2958.50
0.9799,0.0201	-2943.04
0.9882,0.0118	-2933.49
0.9747,0.0253	-2947.56
0.9421,0.0579	-2988.36
0.9898,0.0102	-2942.38
0.9777,0.0223	-2943.38
0.9819,0.0181	-2962.74
0.9865,0.0135	-2955.26
0.9781,0.0219	-2950.91
0.9472,0.0528	-2982.39
0.9899,0.0101	-2951.56
0.9812,0.0188	-2950.77
0.9802,0.0198	-2946.90
0.9883,0.0117	-2951.22
0.9786,0.0214	-2958.52
0.9614,0.0386	-2959.70
0.9882,0.0118	-2937.92
0.9840,0.0160	-2954.90
0.9825,0.0175	-2962.84
0.9912,0.0088	-2928.34
0.9794,0.0206	-2958.56
0.9644,0.0356	-2956.02
0.9858,0.0142	-2946.66
0.9822,0.0178	-2954.77
0.9822,0.0178	-2942.74
0.9896,0.0104	-2942.38
0.9772,0.0228	-2950.98
0.9667,0.0333	-2948.95
0.9834,0.0166	-2942.60
0.9845,0.0155	-2950.81
0.9810,0.0190	-2962.61
0.9877,0.0123	-2951.12
0.9731,0.0269	-2958.57
0.9712,0.0288	-2962.19
0.9834,0.0166	-2938.53
0.9842,0.0158	-2950.80
0.9727,0.0273	-2937.15
0.9882,0.0118	-2946.77
0.9748,0.0252	-2962.16
0.9762,0.0238	-2965.92
0.9823,0.0177	-2950.76
0.9826,0.0174	-2934.62
0.9652,0.0348	-2975.83
0.9870,0.0130	-2955.35
0.9731,0.0269	-2954.98
0.9738,0.0262	-2954.92
0.9818,0.0182	-2946.78
0.9817,0.0183	-2942.80
0.9617,0.0383	-2982.23
0.9832,0.0168	-2967.04
0.9770,0.0230	-2965.99
0.9746,0.0254	-2980.40
0.9811,0.0189	-2946.82
0.9821,0.0179	-2942.75
0.9625,0.0375	-2962.80
0.9822,0.0178	-2970.83
0.9734,0.0266	-2951.36
0.9807,0.0193	-2958.64
0.9775,0.0225	-2947.18
0.9801,0.0199	-2962.49
0.9685,0.0315	-2958.88
0.9808,0.0192	-2946.85
0.9699,0.0301	-3010.87
0.9827,0.0173	-2950.76
0.9797,0.0203	-2962.45
0.9770,0.0230	-2935.99
0.9678,0.0322	-2969.15
0.9780,0.0220	-2950.92
0.9787,0.0213	-2954.70
0.9807,0.0193	-2942.92
0.9833,0.0167	-2938.54
0.9693,0.0307	-2955.36
0.9731,0.0269	-2944.21
0.9795,0.0205	-2977.90
0.9775,0.0225	-2943.41
0.9784,0.0216	-2939.46
0.9827,0.0173	-2946.72
0.9687,0.0313	-2955.43
0.9786,0.0214	-2962.35
0.9759,0.0241	-2958.49
0.9791,0.0209	-2947.01
0.9746,0.0254	-2962.16
0.9845,0.0155	-2946.66
0.9701,0.0299	-2962.23
0.9778,0.0222	-2958.50
0.9760,0.0240	-2951.08
0.9796,0.0204	-2962.44
0.9734,0.0266	-2954.95
0.9838,0.0162	-2946.68
0.9666,0.0334	-2962.43
0.9770,0.0230	-2958.49
0.9780,0.0220	-2958.51
0.9776,0.0224	-2954.72
0.9700,0.0300	-2969.18
0.9833,0.0167	-2950.77
0.9720,0.0280	-2979.91
0.9750,0.0250	-2962.17
0.9797,0.0203	-2958.58
0.9748,0.0252	-2943.88
0.9691,0.0309	-2955.39
0.9837,0.0163	-2950.78
0.9728,0.0272	-2955.00
0.9729,0.0271	-2958.58
0.9773,0.0227	-2966.02
0.9736,0.0264	-2958.55
0.9700,0.0300	-2965.71
0.9797,0.0203	-2958.58
0.9741,0.0259	-2962.16
0.9734,0.0266	-2962.15
0.9789,0.0211	-2962.37
0.9752,0.0248	-2958.50
0.9744,0.0256	-2943.96
0.9799,0.0201	-2943.03
0.9766,0.0234	-2951.03
0.9750,0.0250	-2973.16
0.9842,0.0158	-2954.93
0.9737,0.0263	-2962.15
0.9741,0.0259	-2958.53
0.9834,0.0166	-2950.77
0.9813,0.0187	-2954.73
0.9696,0.0304	-2962.25
0.9850,0.0150	-2938.29
0.9768,0.0232	-2958.49
0.9742,0.0258	-2976.67
0.9802,0.0198	-2962.51
0.9816,0.0184	-2942.81
0.9718,0.0282	-2958.63
0.9841,0.0159	-2946.67
0.9748,0.0252	-2958.51
0.9728,0.0272	-2955.00
0.9833,0.0167	-2938.54
0.9814,0.0186	-2958.70
0.9661,0.0339	-2972.52
0.9825,0.0175	-2942.70
0.9783,0.0217	-2954.71
0.9785,0.0215	-2966.16
0.9836,0.0164	-2942.59
0.9783,0.0217	-2958.52
0.9687,0.0313	-2969.16
0.9799,0.0201	-2943.04
0.9790,0.0210	-2943.17
0.9729,0.0271	-2962.16
0.9854,0.0146	-2938.23
0.9742,0.0258	-2965.79
0.9682,0.0318	-2965.74
0.9830,0.0170	-2946.71
0.9762,0.0238	-2943.63
0.9692,0.0308	-2962.27
0.9872,0.0128	-2946.70
0.9744,0.0256	-2943.97
0.9704,0.0296	-2990.14
0.9859,0.0141	-2942.41
0.9763,0.0237	-2951.05
0.9714,0.0286	-2962.18
0.9824,0.0176	-2954.78
0.9769,0.0231	-2943.51
0.9683,0.0317	-2958.90
0.9852,0.0148	-2946.65
0.9746,0.0254	-2965.81
0.9600,0.0400	-2956.74
0.9829,0.0171	-2934.55
0.9723,0.0277	-2962.16
0.9728,0.0272	-2947.85
0.9862,0.0138	-2929.58
0.9625,0.0375	-2979.03
0.9540,0.0460	-2966.95
0.9829,0.0171	-2958.86
0.9715,0.0285	-2965.71
0.9731,0.0269	-2951.39
0.9887,0.0113	-2933.41
0.9714,0.0286	-2955.13
0.9613,0.0387	-2966.14
0.9797,0.0203	-2950.82
0.9733,0.0267	-2972.94
0.9743,0.0257	-2958.52
0.9881,0.0119	-2946.76
0.9654,0.0346	-2949.21
0.9706,0.0294	-2979.69
0.9768,0.0232	-2939.78
0.9758,0.0242	-2951.10
0.9724,0.0276	-2962.16
0.9880,0.0120	-2937.93
0.9588,0.0412	-2969.53
0.9711,0.0289	-2969.22
0.9784,0.0216	-2943.27
0.9762,0.0238	-2958.49
0.9752,0.0248	-2951.15
0.9857,0.0143	-2955.12
0.9676,0.0324	-2962.36
0.9661,0.0339	-2955.77
0.9773,0.0227	-2962.26
0.9801,0.0199	-2958.60
0.9761,0.0239	-2973.33
0.9826,0.0174	-2966.90
0.9677,0.0323	-2969.15
0.9635,0.0365	-2962.70
0.9774,0.0226	-2958.50
0.9788,0.0212	-2950.87
0.9721,0.0279	-2951.52
0.9861,0.0139	-2946.66
0.9652,0.0348	-2982.48
0.9723,0.0277	-2951.49
0.9748,0.0252	-2947.54
0.9798,0.0202	-2939.17
0.9716,0.0284	-2976.31
0.9883,0.0117	-2937.90
0.9671,0.0329	-2959.01
0.9643,0.0357	-2979.10
0.9703,0.0297	-2955.24
0.9772,0.0228	-2943.46
0.9718,0.0282	-2955.09
0.9867,0.0133	-2942.37
0.9698,0.0302	-2972.65
0.9679,0.0321	-2972.56
0.9695,0.0305	-2969.17
0.9785,0.0215	-2950.89
0.9669,0.0331	-2959.04
0.9874,0.0126	-2959.81
0.9723,0.0277	-2958.60
0.9675,0.0325	-2945.40
0.9698,0.0302	-2962.24
0.9772,0.0228	-2947.22
0.9661,0.0339	-2965.82
0.9890,0.0110	-2942.35
0.9768,0.0232	-2973.45
0.9671,0.0329	-2969.16
0.9596,0.0404	-2969.47
0.9764,0.0236	-2943.59
0.9671,0.0329	-2942.11
0.9902,0.0098	-2937.79
0.9790,0.0210	-2943.17
0.9609,0.0391	-2953.38
0.9665,0.0335	-2945.63
0.9691,0.0309	-2969.16
0.9750,0.0250	-2973.17
0.9905,0.0095	-2933.14
0.9751,0.0249	-2958.50
0.9609,0.0391	-2978.99
0.9706,0.0294	-2955.21
0.9711,0.0289	-2972.73
0.9747,0.0253	-2958.51
0.9913,0.0087	-2933.05
0.9733,0.0267	-2976.54
0.9422,0.0578	-2999.52
0.9705,0.0295	-2955.22
0.9685,0.0315	-2952.02
0.9793,0.0207	-2954.70
0.9917,0.0083	-2942.57
0.9712,0.0288	-2951.63
0.9522,0.0478	-2994.12
0.9701,0.0299	-2955.27
0.9618,0.0382	-2969.33
0.9791,0.0209	-2958.54
0.9916,0.0084	-2933.01
0.9673,0.0327	-2958.99
0.9603,0.0397	-2966.24
0.9706,0.0294	-2958.71
0.9575,0.0425	-2969.64
0.9726,0.0274	-2951.46
0.9895,0.0105	-2937.82
0.9751,0.0249	-2969.51
0.9616,0.0384	-2975.78
0.9739,0.0261	-2976.63
0.9614,0.0386	-2959.70
0.9727,0.0273	-2955.01
0.9898,0.0102	-2937.81
0.9723,0.0277	-2958.60
0.9560,0.0440	-2982.09
0.9689,0.0311	-2982.92
0.9638,0.0362	-2975.80
0.9750,0.0250	-2962.17
0.9876,0.0124	-2964.23
