#isoforms=['ENSG00000110080.SE.2.A.up_ENSG00000110080.SE.2.A.SE1_ENSG00000110080.SE.2.A.dn','ENSG00000110080.SE.2.B.up_ENSG00000110080.SE.2.B.dn']	exon_lens=('ENSG00000110080.SE.2.A.up',61),('ENSG00000110080.SE.2.A.SE1',96),('ENSG00000110080.SE.2.A.dn',190),('ENSG00000110080.SE.2.B.up',61),('ENSG00000110080.SE.2.B.dn',190)	iters=5000	burn_in=500	lag=10	percent_accept=92.59	proposal_type=drift	counts=(0,0):3547,(0,1):6,(1,0):1814,(1,1):559	assigned_counts=0:2372,1:7	chrom=chr11	strand=+	mRNA_starts=126407574,126407574	mRNA_ends=126408496,126408496
sampled_psi	log_score
0.9906,0.0094	-12666.89
0.9922,0.0078	-12624.32
0.9864,0.0136	-12657.59
0.9928,0.0072	-12643.86
0.9794,0.0206	-12699.10
0.9903,0.0097	-12639.01
0.9906,0.0094	-12652.94
0.9923,0.0077	-12638.86
0.9867,0.0133	-12653.22
0.9933,0.0067	-12634.03
0.9829,0.0171	-12658.74
0.9892,0.0108	-12643.83
0.9894,0.0106	-12639.25
0.9935,0.0065	-12624.00
0.9885,0.0115	-12675.18
0.9923,0.0077	-12629.14
0.9853,0.0147	-12653.68
0.9881,0.0119	-12644.12
0.9885,0.0115	-12657.36
0.9940,0.0060	-12623.94
0.9885,0.0115	-12661.81
0.9922,0.0078	-12624.34
0.9869,0.0131	-12648.85
0.9887,0.0113	-12630.51
0.9888,0.0112	-12648.40
0.9946,0.0054	-12639.57
0.9868,0.0132	-12653.22
0.9940,0.0060	-12639.27
0.9876,0.0124	-12644.28
0.9889,0.0111	-12648.38
0.9906,0.0094	-12652.94
0.9939,0.0061	-12623.95
0.9890,0.0110	-12652.86
0.9919,0.0081	-12638.85
0.9878,0.0122	-12644.21
0.9899,0.0101	-12648.28
0.9928,0.0072	-12629.07
0.9951,0.0049	-12634.66
0.9875,0.0125	-12648.69
0.9917,0.0083	-12643.64
0.9867,0.0133	-12657.54
0.9898,0.0102	-12639.14
0.9918,0.0082	-12662.85
0.9957,0.0043	-12629.61
0.9843,0.0157	-12649.94
0.9927,0.0073	-12638.90
0.9870,0.0130	-12657.49
0.9905,0.0095	-12652.92
0.9927,0.0073	-12624.17
0.9956,0.0044	-12634.96
0.9867,0.0133	-12653.23
0.9909,0.0091	-12653.00
0.9859,0.0141	-12661.97
0.9903,0.0097	-12639.01
0.9896,0.0104	-12657.40
0.9960,0.0040	-12629.83
0.9853,0.0147	-12657.87
0.9916,0.0084	-12638.86
0.9852,0.0148	-12666.30
0.9901,0.0099	-12648.27
0.9869,0.0131	-12657.51
0.9945,0.0055	-12629.13
0.9886,0.0114	-12635.06
0.9919,0.0081	-12643.66
0.9859,0.0141	-12653.48
0.9903,0.0097	-12652.90
0.9853,0.0147	-12662.08
0.9936,0.0064	-12639.11
0.9874,0.0126	-12687.96
0.9923,0.0077	-12648.58
0.9856,0.0144	-12636.65
0.9873,0.0127	-12661.80
0.9865,0.0135	-12640.43
0.9933,0.0067	-12649.03
0.9888,0.0112	-12657.36
0.9918,0.0082	-12634.06
0.9881,0.0119	-12657.37
0.9857,0.0143	-12640.83
0.9864,0.0136	-12666.17
0.9907,0.0093	-12652.95
0.9927,0.0073	-12643.83
0.9913,0.0087	-12657.82
0.9885,0.0115	-12635.08
0.9863,0.0137	-12644.79
0.9866,0.0134	-12666.16
0.9915,0.0085	-12643.62
0.9916,0.0084	-12648.41
0.9916,0.0084	-12648.41
0.9885,0.0115	-12648.44
0.9879,0.0121	-12666.19
0.9867,0.0133	-12648.93
0.9922,0.0078	-12653.41
0.9917,0.0083	-12643.64
0.9911,0.0089	-12662.46
0.9869,0.0131	-12661.83
0.9871,0.0129	-12640.14
0.9876,0.0124	-12670.55
0.9933,0.0067	-12624.03
0.9900,0.0100	-12657.47
0.9902,0.0098	-12662.11
0.9857,0.0143	-12653.53
0.9908,0.0092	-12657.64
0.9878,0.0122	-12670.58
0.9940,0.0060	-12634.16
0.9899,0.0101	-12662.03
0.9905,0.0095	-12648.28
0.9880,0.0120	-12661.79
0.9917,0.0083	-12638.85
0.9890,0.0110	-12625.86
0.9948,0.0052	-12639.70
0.9915,0.0085	-12634.11
0.9923,0.0077	-12638.86
0.9895,0.0105	-12648.31
0.9936,0.0064	-12644.19
0.9908,0.0092	-12652.97
0.9951,0.0049	-12618.70
0.9928,0.0072	-12634.00
0.9931,0.0069	-12638.99
0.9907,0.0093	-12638.95
0.9940,0.0060	-12629.05
0.9914,0.0086	-12629.37
0.9956,0.0044	-12624.14
0.9911,0.0089	-12638.89
0.9928,0.0072	-12653.73
0.9911,0.0089	-12653.03
0.9930,0.0070	-12619.13
0.9925,0.0075	-12638.88
0.9959,0.0041	-12629.78
0.9905,0.0095	-12625.05
0.9927,0.0073	-12624.17
0.9910,0.0090	-12638.91
0.9938,0.0062	-12634.12
0.9933,0.0067	-12634.03
0.9958,0.0042	-12640.67
0.9922,0.0078	-12643.70
0.9947,0.0053	-12634.44
0.9903,0.0097	-12652.90
0.9933,0.0067	-12639.04
0.9928,0.0072	-12643.84
0.9958,0.0042	-12624.23
0.9934,0.0066	-12629.03
0.9956,0.0044	-12629.55
0.9915,0.0085	-12657.89
0.9935,0.0065	-12634.06
0.9936,0.0064	-12634.07
0.9960,0.0040	-12624.32
0.9935,0.0065	-12634.06
0.9960,0.0040	-12635.32
0.9923,0.0077	-12643.73
0.9936,0.0064	-12649.23
0.9940,0.0060	-12618.83
0.9963,0.0037	-12624.54
0.9937,0.0063	-12634.09
0.9955,0.0045	-12640.29
0.9910,0.0090	-12648.31
0.9915,0.0085	-12643.62
0.9944,0.0056	-12629.11
0.9960,0.0040	-12618.82
0.9938,0.0062	-12618.89
0.9954,0.0046	-12629.48
0.9888,0.0112	-12648.40
0.9915,0.0085	-12643.62
0.9940,0.0060	-12639.27
0.9955,0.0045	-12640.33
0.9940,0.0060	-12629.06
0.9948,0.0052	-12634.46
0.9907,0.0093	-12638.95
0.9889,0.0111	-12648.39
0.9937,0.0063	-12623.97
0.9968,0.0032	-12619.18
0.9943,0.0057	-12623.93
0.9942,0.0058	-12634.24
0.9902,0.0098	-12652.89
0.9905,0.0095	-12662.21
0.9931,0.0069	-12629.04
0.9966,0.0034	-12636.13
0.9937,0.0063	-12654.30
0.9924,0.0076	-12624.27
0.9917,0.0083	-12638.85
0.9926,0.0074	-12638.89
0.9930,0.0070	-12634.01
0.9954,0.0046	-12645.63
0.9944,0.0056	-12639.48
0.9913,0.0087	-12624.66
0.9910,0.0090	-12634.20
0.9929,0.0071	-12624.12
0.9936,0.0064	-12623.99
0.9946,0.0054	-12623.94
0.9938,0.0062	-12634.12
0.9891,0.0109	-12639.33
0.9916,0.0084	-12648.39
0.9933,0.0067	-12624.03
0.9935,0.0065	-12644.11
0.9951,0.0049	-12639.93
0.9924,0.0076	-12624.25
0.9920,0.0080	-12634.03
0.9916,0.0084	-12629.32
0.9934,0.0066	-12634.04
0.9941,0.0059	-12639.34
0.9940,0.0060	-12639.28
0.9893,0.0107	-12657.38
0.9922,0.0078	-12634.02
0.9910,0.0090	-12653.00
0.9925,0.0075	-12648.66
0.9933,0.0067	-12639.02
0.9935,0.0065	-12644.09
0.9917,0.0083	-12648.42
0.9911,0.0089	-12638.89
0.9906,0.0094	-12638.97
0.9931,0.0069	-12653.88
0.9930,0.0070	-12643.92
0.9926,0.0074	-12643.80
0.9919,0.0081	-12648.46
0.9921,0.0079	-12653.34
0.9910,0.0090	-12629.50
0.9936,0.0064	-12618.93
0.9946,0.0054	-12634.38
0.9917,0.0083	-12638.85
0.9929,0.0071	-12648.82
0.9912,0.0088	-12638.89
0.9916,0.0084	-12657.94
0.9947,0.0053	-12639.67
0.9957,0.0043	-12629.66
0.9911,0.0089	-12643.61
0.9933,0.0067	-12639.02
0.9926,0.0074	-12634.00
0.9922,0.0078	-12658.24
0.9915,0.0085	-12643.62
0.9947,0.0053	-12629.20
0.9912,0.0088	-12634.17
0.9935,0.0065	-12629.03
0.9898,0.0102	-12643.71
0.9908,0.0092	-12634.26
0.9919,0.0081	-12638.85
0.9947,0.0053	-12639.67
0.9919,0.0081	-12653.29
0.9934,0.0066	-12639.05
0.9868,0.0132	-12644.58
0.9928,0.0072	-12624.15
0.9931,0.0069	-12629.04
0.9951,0.0049	-12629.34
0.9919,0.0081	-12643.66
0.9942,0.0058	-12644.53
0.9851,0.0149	-12662.13
0.9931,0.0069	-12653.89
0.9937,0.0063	-12634.09
0.9946,0.0054	-12629.15
0.9921,0.0079	-12638.86
0.9934,0.0066	-12634.04
0.9870,0.0130	-12648.83
0.9924,0.0076	-12648.62
0.9939,0.0061	-12644.35
0.9949,0.0051	-12645.03
0.9920,0.0080	-12629.22
0.9916,0.0084	-12624.56
0.9884,0.0116	-12635.13
0.9929,0.0071	-12629.06
0.9935,0.0065	-12634.06
0.9931,0.0069	-12638.98
0.9924,0.0076	-12629.14
0.9906,0.0094	-12624.99
0.9887,0.0113	-12639.48
0.9947,0.0053	-12629.20
0.9945,0.0055	-12649.92
0.9931,0.0069	-12638.97
0.9932,0.0068	-12624.05
0.9913,0.0087	-12657.81
0.9888,0.0112	-12652.87
0.9934,0.0066	-12644.08
0.9936,0.0064	-12644.14
0.9934,0.0066	-12629.03
0.9920,0.0080	-12638.85
0.9889,0.0111	-12634.89
0.9877,0.0123	-12657.40
0.9938,0.0062	-12629.03
0.9926,0.0074	-12624.20
0.9952,0.0048	-12634.71
0.9917,0.0083	-12629.29
0.9887,0.0113	-12643.94
0.9895,0.0105	-12643.76
0.9946,0.0054	-12660.50
0.9934,0.0066	-12639.05
0.9960,0.0040	-12640.92
0.9928,0.0072	-12648.76
0.9867,0.0133	-12648.91
0.9904,0.0096	-12643.63
0.9944,0.0056	-12629.11
0.9927,0.0073	-12638.91
0.9948,0.0052	-12634.47
0.9923,0.0077	-12648.58
0.9880,0.0120	-12657.38
0.9924,0.0076	-12643.75
0.9943,0.0057	-12634.25
0.9938,0.0062	-12639.19
0.9931,0.0069	-12629.04
0.9941,0.0059	-12629.07
0.9868,0.0132	-12635.96
0.9943,0.0057	-12623.93
0.9945,0.0055	-12649.95
0.9948,0.0052	-12629.22
0.9923,0.0077	-12648.57
0.9941,0.0059	-12634.19
0.9858,0.0142	-12687.43
0.9946,0.0054	-12634.39
0.9942,0.0058	-12644.53
0.9935,0.0065	-12629.03
0.9914,0.0086	-12638.87
0.9940,0.0060	-12623.94
0.9856,0.0144	-12674.69
0.9951,0.0049	-12624.00
0.9935,0.0065	-12649.15
0.9924,0.0076	-12643.75
0.9915,0.0085	-12629.34
0.9930,0.0070	-12643.92
0.9867,0.0133	-12661.84
0.9949,0.0051	-12629.27
0.9921,0.0079	-12648.53
0.9926,0.0074	-12634.00
0.9911,0.0089	-12643.61
0.9937,0.0063	-12623.97
0.9909,0.0091	-12662.37
0.9946,0.0054	-12623.94
0.9928,0.0072	-12634.00
0.9934,0.0066	-12634.04
0.9916,0.0084	-12657.93
0.9942,0.0058	-12654.75
0.9921,0.0079	-12643.68
0.9933,0.0067	-12639.03
0.9922,0.0078	-12634.01
0.9919,0.0081	-12648.46
0.9879,0.0121	-12670.59
0.9939,0.0061	-12639.23
0.9919,0.0081	-12638.85
0.9931,0.0069	-12643.96
0.9881,0.0119	-12635.26
0.9917,0.0083	-12634.08
0.9911,0.0089	-12629.48
0.9930,0.0070	-12629.05
0.9926,0.0074	-12634.00
0.9929,0.0071	-12634.00
0.9884,0.0116	-12635.11
0.9928,0.0072	-12624.16
0.9892,0.0108	-12643.81
0.9938,0.0062	-12634.11
0.9913,0.0087	-12648.35
0.9936,0.0064	-12639.12
0.9882,0.0118	-12670.64
0.9930,0.0070	-12638.97
0.9890,0.0110	-12661.86
0.9928,0.0072	-12629.07
0.9885,0.0115	-12648.45
0.9931,0.0069	-12634.01
0.9873,0.0127	-12657.44
0.9929,0.0071	-12624.12
0.9908,0.0092	-12634.24
0.9931,0.0069	-12638.97
0.9886,0.0114	-12639.49
0.9920,0.0080	-12638.85
0.9861,0.0139	-12674.71
0.9932,0.0068	-12619.05
0.9899,0.0101	-12643.69
0.9924,0.0076	-12629.12
0.9898,0.0102	-12629.98
0.9930,0.0070	-12643.91
0.9876,0.0124	-12644.27
0.9935,0.0065	-12629.03
0.9911,0.0089	-12638.89
0.9925,0.0075	-12648.65
0.9902,0.0098	-12643.66
0.9918,0.0082	-12638.85
0.9892,0.0108	-12652.86
0.9954,0.0046	-12645.63
0.9895,0.0105	-12657.40
0.9920,0.0080	-12643.68
0.9914,0.0086	-12643.61
0.9916,0.0084	-12648.39
0.9909,0.0091	-12643.61
0.9943,0.0057	-12634.26
0.9873,0.0127	-12670.51
0.9909,0.0091	-12643.61
0.9888,0.0112	-12657.36
0.9933,0.0067	-12644.02
0.9907,0.0093	-12648.28
0.9952,0.0048	-12629.38
0.9874,0.0126	-12644.34
0.9909,0.0091	-12648.30
0.9862,0.0138	-12644.83
0.9912,0.0088	-12634.16
0.9903,0.0097	-12634.40
0.9936,0.0064	-12649.23
0.9866,0.0134	-12670.46
0.9911,0.0089	-12638.90
0.9883,0.0117	-12661.80
0.9914,0.0086	-12634.12
0.9921,0.0079	-12634.02
0.9925,0.0075	-12629.11
0.9886,0.0114	-12639.51
0.9903,0.0097	-12671.38
0.9871,0.0129	-12679.16
0.9895,0.0105	-12648.31
0.9915,0.0085	-12624.59
0.9914,0.0086	-12648.37
0.9872,0.0128	-12653.12
0.9913,0.0087	-12648.35
0.9880,0.0120	-12644.16
0.9893,0.0107	-12643.79
0.9934,0.0066	-12629.03
0.9912,0.0088	-12662.50
0.9850,0.0150	-12662.14
0.9896,0.0104	-12648.30
0.9867,0.0133	-12674.77
0.9901,0.0099	-12643.66
0.9916,0.0084	-12643.63
0.9901,0.0099	-12629.86
0.9845,0.0155	-12670.58
0.9901,0.0099	-12629.85
0.9865,0.0135	-12661.88
0.9903,0.0097	-12634.40
0.9885,0.0115	-12661.81
0.9865,0.0135	-12640.39
0.9858,0.0142	-12653.50
0.9894,0.0106	-12648.32
0.9825,0.0175	-12654.89
0.9918,0.0082	-12643.65
0.9877,0.0123	-12653.01
0.9875,0.0125	-12648.67
0.9834,0.0166	-12670.77
0.9885,0.0115	-12666.27
0.9864,0.0136	-12683.31
0.9932,0.0068	-12624.04
0.9878,0.0122	-12653.00
0.9872,0.0128	-12653.12
0.9862,0.0138	-12653.38
0.9903,0.0097	-12634.40
0.9852,0.0148	-12649.51
0.9956,0.0044	-12629.59
0.9848,0.0152	-12641.33
0.9894,0.0106	-12657.39
0.9847,0.0153	-12678.88
0.9878,0.0122	-12648.60
0.9875,0.0125	-12644.31
0.9957,0.0043	-12629.63
0.9812,0.0188	-12659.53
0.9882,0.0118	-12644.08
0.9870,0.0130	-12640.16
0.9891,0.0109	-12634.83
0.9888,0.0112	-12657.36
0.9957,0.0043	-12618.75
0.9859,0.0141	-12661.95
0.9888,0.0112	-12639.42
0.9887,0.0113	-12648.42
0.9888,0.0112	-12639.42
0.9884,0.0116	-12652.91
0.9963,0.0037	-12630.07
0.9882,0.0118	-12652.94
0.9888,0.0112	-12679.76
0.9888,0.0112	-12657.36
0.9903,0.0097	-12652.90
0.9856,0.0144	-12662.02
0.9953,0.0047	-12624.05
0.9881,0.0119	-12644.11
0.9914,0.0086	-12648.37
0.9873,0.0127	-12653.09
0.9927,0.0073	-12624.18
0.9832,0.0168	-12678.96
0.9936,0.0064	-12639.12
0.9869,0.0131	-12657.50
0.9905,0.0095	-12638.99
0.9894,0.0106	-12657.39
0.9925,0.0075	-12629.12
0.9828,0.0172	-12658.77
0.9937,0.0063	-12623.97
0.9882,0.0118	-12657.36
0.9889,0.0111	-12661.85
0.9887,0.0113	-12643.93
0.9932,0.0068	-12624.05
0.9843,0.0157	-12666.47
0.9946,0.0054	-12618.73
0.9877,0.0123	-12639.84
0.9870,0.0130	-12653.17
0.9832,0.0168	-12658.63
0.9942,0.0058	-12659.95
0.9876,0.0124	-12648.67
0.9934,0.0066	-12624.02
0.9860,0.0140	-12661.94
0.9845,0.0155	-12637.38
0.9793,0.0207	-12675.97
0.9945,0.0055	-12629.14
0.9861,0.0139	-12657.66
0.9915,0.0085	-12643.62
0.9835,0.0165	-12642.15
0.9840,0.0160	-12670.66
0.9838,0.0162	-12662.49
0.9947,0.0053	-12618.72
0.9879,0.0121	-12666.19
0.9914,0.0086	-12648.37
0.9844,0.0156	-12645.72
0.9845,0.0155	-12666.42
0.9867,0.0133	-12666.15
0.9954,0.0046	-12629.46
0.9899,0.0101	-12657.44
0.9895,0.0105	-12634.67
0.9871,0.0129	-12653.13
0.9802,0.0198	-12675.64
0.9844,0.0156	-12645.70
0.9958,0.0042	-12624.24
0.9911,0.0089	-12643.61
0.9890,0.0110	-12643.87
0.9857,0.0143	-12657.77
0.9819,0.0181	-12671.16
0.9853,0.0147	-12670.49
0.9951,0.0049	-12618.70
0.9917,0.0083	-12643.63
0.9918,0.0082	-12643.65
0.9881,0.0119	-12648.52
0.9835,0.0165	-12666.66
0.9868,0.0132	-12644.58
0.9950,0.0050	-12624.00
0.9915,0.0085	-12653.15
0.9927,0.0073	-12643.81
0.9856,0.0144	-12683.15
0.9863,0.0137	-12627.70
0.9890,0.0110	-12648.36
0.9946,0.0054	-12623.94
0.9908,0.0092	-12666.99
0.9892,0.0108	-12639.32
0.9836,0.0164	-12666.65
0.9871,0.0129	-12640.14
0.9867,0.0133	-12679.08
0.9940,0.0060	-12654.56
0.9905,0.0095	-12634.35
0.9887,0.0113	-12648.41
0.9838,0.0162	-12654.29
0.9903,0.0097	-12634.39
0.9856,0.0144	-12653.55
0.9944,0.0056	-12644.65
0.9896,0.0104	-12661.97
0.9906,0.0094	-12638.97
0.9839,0.0161	-12641.88
0.9850,0.0150	-12657.95
0.9860,0.0140	-12640.65
0.9936,0.0064	-12649.23
0.9906,0.0094	-12657.59
0.9917,0.0083	-12653.21
0.9878,0.0122	-12653.00
0.9885,0.0115	-12648.45
0.9852,0.0148	-12649.49
0.9943,0.0057	-12639.40
0.9903,0.0097	-12639.01
0.9906,0.0094	-12634.31
0.9879,0.0121	-12670.58
0.9880,0.0120	-12644.15
0.9863,0.0137	-12661.89
0.9954,0.0046	-12629.46
0.9935,0.0065	-12644.13
0.9893,0.0107	-12661.90
0.9904,0.0096	-12639.01
0.9867,0.0133	-12683.37
0.9876,0.0124	-12661.79
0.9948,0.0052	-12629.23
0.9925,0.0075	-12638.88
0.9899,0.0101	-12648.28
0.9914,0.0086	-12648.36
0.9888,0.0112	-12643.92
0.9889,0.0111	-12648.37
0.9936,0.0064	-12629.03
0.9914,0.0086	-12648.36
0.9875,0.0125	-12661.79
0.9885,0.0115	-12648.44
0.9888,0.0112	-12634.97
0.9887,0.0113	-12648.42
0.9947,0.0053	-12623.95
0.9892,0.0108	-12666.41
0.9882,0.0118	-12657.37
0.9882,0.0118	-12648.52
0.9839,0.0161	-12674.79
0.9889,0.0111	-12643.89
0.9947,0.0053	-12629.18
0.9865,0.0135	-12644.71
0.9885,0.0115	-12657.36
0.9884,0.0116	-12652.91
0.9870,0.0130	-12653.15
0.9886,0.0114	-12639.51
0.9942,0.0058	-12634.24
0.9882,0.0118	-12644.07
0.9880,0.0120	-12661.79
0.9887,0.0113	-12652.88
0.9874,0.0126	-12657.44
0.9900,0.0100	-12675.86
0.9944,0.0056	-12629.10
0.9868,0.0132	-12644.59
0.9874,0.0126	-12653.08
0.9862,0.0138	-12666.18
0.9879,0.0121	-12652.98
0.9899,0.0101	-12629.94
0.9930,0.0070	-12624.09
0.9846,0.0154	-12670.57
0.9859,0.0141	-12657.71
0.9893,0.0107	-12652.85
0.9885,0.0115	-12648.45
0.9903,0.0097	-12634.40
0.9921,0.0079	-12619.53
0.9839,0.0161	-12658.32
0.9849,0.0151	-12649.65
0.9879,0.0121	-12652.98
0.9895,0.0105	-12661.95
0.9907,0.0093	-12657.61
0.9897,0.0103	-12643.73
0.9832,0.0168	-12650.49
0.9852,0.0148	-12649.53
0.9876,0.0124	-12648.66
0.9901,0.0099	-12634.45
0.9932,0.0068	-12629.03
0.9895,0.0105	-12648.31
0.9837,0.0163	-12662.52
0.9825,0.0175	-12642.80
0.9887,0.0113	-12648.42
0.9914,0.0086	-12638.87
0.9921,0.0079	-12638.86
0.9893,0.0107	-12648.33
0.9840,0.0160	-12666.54
0.9845,0.0155	-12674.73
0.9851,0.0149	-12662.13
0.9881,0.0119	-12648.54
0.9927,0.0073	-12629.09
0.9884,0.0116	-12661.81
0.9852,0.0148	-12636.89
0.9845,0.0155	-12658.12
0.9861,0.0139	-12653.41
0.9889,0.0111	-12634.92
0.9926,0.0074	-12634.00
0.9916,0.0084	-12624.54
0.9843,0.0157	-12649.93
0.9838,0.0162	-12658.39
0.9913,0.0087	-12648.35
0.9917,0.0083	-12653.22
0.9935,0.0065	-12639.08
0.9910,0.0090	-12643.61
0.9866,0.0134	-12679.05
0.9747,0.0253	-12681.77
0.9920,0.0080	-12648.51
0.9917,0.0083	-12634.08
0.9949,0.0051	-12639.78
0.9886,0.0114	-12635.06
0.9865,0.0135	-12644.71
0.9792,0.0208	-12676.03
0.9924,0.0076	-12634.00
0.9904,0.0096	-12648.27
0.9943,0.0057	-12639.39
0.9897,0.0103	-12643.73
0.9885,0.0115	-12639.54
0.9797,0.0203	-12656.47
0.9927,0.0073	-12638.90
0.9903,0.0097	-12657.52
0.9962,0.0038	-12618.86
0.9902,0.0098	-12643.66
0.9851,0.0149	-12666.31
0.9746,0.0254	-12703.69
0.9904,0.0096	-12657.54
0.9885,0.0115	-12643.98
0.9955,0.0045	-12624.10
0.9905,0.0095	-12634.35
0.9835,0.0165	-12670.76
0.9767,0.0233	-12665.88
0.9903,0.0097	-12648.27
0.9893,0.0107	-12648.33
0.9948,0.0052	-12623.96
0.9904,0.0096	-12666.81
0.9840,0.0160	-12650.07
0.9760,0.0240	-12677.46
0.9897,0.0103	-12648.29
0.9900,0.0100	-12652.87
0.9936,0.0064	-12634.06
0.9900,0.0100	-12634.48
0.9825,0.0175	-12679.05
0.9818,0.0182	-12667.19
0.9892,0.0108	-12652.86
0.9897,0.0103	-12648.29
0.9930,0.0070	-12638.97
0.9874,0.0126	-12666.16
0.9828,0.0172	-12670.91
0.9850,0.0150	-12653.76
0.9901,0.0099	-12643.66
0.9906,0.0094	-12643.62
0.9919,0.0081	-12648.46
0.9888,0.0112	-12639.43
0.9830,0.0170	-12670.86
0.9863,0.0137	-12666.17
0.9885,0.0115	-12661.81
0.9907,0.0093	-12638.95
0.9910,0.0090	-12634.21
0.9876,0.0124	-12653.03
0.9814,0.0186	-12659.42
0.9891,0.0109	-12639.32
0.9881,0.0119	-12635.29
0.9911,0.0089	-12648.32
0.9912,0.0088	-12657.77
0.9843,0.0157	-12662.32
0.9814,0.0186	-12655.48
0.9902,0.0098	-12648.27
0.9882,0.0118	-12652.94
0.9888,0.0112	-12652.88
0.9922,0.0078	-12643.70
0.9833,0.0167	-12650.39
0.9852,0.0148	-12657.91
0.9897,0.0103	-12634.60
0.9891,0.0109	-12643.85
0.9877,0.0123	-12661.79
0.9920,0.0080	-12653.33
0.9793,0.0207	-12679.84
0.9838,0.0162	-12670.70
0.9897,0.0103	-12643.73
0.9884,0.0116	-12652.92
0.9870,0.0130	-12648.83
0.9914,0.0086	-12629.39
0.9826,0.0174	-12679.03
0.9853,0.0147	-12657.87
0.9892,0.0108	-12630.25
0.9839,0.0161	-12654.22
0.9906,0.0094	-12643.62
0.9915,0.0085	-12634.11
0.9840,0.0160	-12666.54
0.9875,0.0125	-12644.32
0.9914,0.0086	-12648.36
0.9811,0.0189	-12647.73
0.9889,0.0111	-12643.88
0.9921,0.0079	-12634.03
0.9827,0.0173	-12662.85
0.9864,0.0136	-12653.30
0.9918,0.0082	-12638.85
0.9793,0.0207	-12687.55
0.9894,0.0106	-12652.85
0.9924,0.0076	-12643.74
0.9822,0.0178	-12655.02
0.9875,0.0125	-12639.94
0.9922,0.0078	-12638.86
0.9762,0.0238	-12695.91
0.9910,0.0090	-12662.43
0.9931,0.0069	-12634.01
0.9830,0.0170	-12654.63
0.9865,0.0135	-12649.00
0.9921,0.0079	-12638.86
0.9807,0.0193	-12675.50
0.9911,0.0089	-12638.89
0.9936,0.0064	-12634.07
0.9873,0.0127	-12648.75
0.9875,0.0125	-12657.42
0.9935,0.0065	-12654.21
0.9845,0.0155	-12658.13
0.9904,0.0096	-12648.27
0.9931,0.0069	-12629.04
0.9894,0.0106	-12666.45
0.9896,0.0104	-12652.85
0.9938,0.0062	-12634.12
0.9896,0.0104	-12639.20
0.9902,0.0098	-12639.03
0.9928,0.0072	-12624.13
0.9901,0.0099	-12648.27
0.9889,0.0111	-12652.87
0.9916,0.0084	-12643.63
0.9868,0.0132	-12653.21
0.9863,0.0137	-12640.50
0.9923,0.0077	-12668.05
0.9892,0.0108	-12670.93
0.9882,0.0118	-12644.10
0.9926,0.0074	-12653.59
0.9889,0.0111	-12634.91
0.9887,0.0113	-12648.41
0.9913,0.0087	-12634.14
0.9886,0.0114	-12639.50
0.9866,0.0134	-12648.96
0.9915,0.0085	-12629.35
0.9891,0.0109	-12643.84
0.9871,0.0129	-12631.47
0.9886,0.0114	-12657.36
0.9879,0.0121	-12635.38
0.9901,0.0099	-12652.88
0.9927,0.0073	-12634.00
0.9892,0.0108	-12625.75
0.9864,0.0136	-12679.02
0.9880,0.0120	-12657.38
0.9912,0.0088	-12643.61
0.9896,0.0104	-12661.97
0.9937,0.0063	-12618.90
0.9888,0.0112	-12657.36
0.9873,0.0127	-12670.51
0.9882,0.0118	-12639.65
0.9914,0.0086	-12638.87
0.9896,0.0104	-12666.52
0.9908,0.0092	-12638.93
0.9870,0.0130	-12653.15
0.9875,0.0125	-12639.96
0.9908,0.0092	-12667.03
0.9889,0.0111	-12652.87
0.9882,0.0118	-12639.65
0.9883,0.0117	-12639.61
0.9858,0.0142	-12657.73
0.9883,0.0117	-12639.63
0.9909,0.0091	-12643.61
0.9884,0.0116	-12644.03
0.9894,0.0106	-12652.85
0.9896,0.0104	-12657.41
0.9885,0.0115	-12643.99
0.9873,0.0127	-12657.44
0.9926,0.0074	-12634.00
0.9868,0.0132	-12648.90
0.9895,0.0105	-12643.76
0.9891,0.0109	-12652.86
0.9883,0.0117	-12670.67
0.9876,0.0124	-12661.79
0.9928,0.0072	-12648.76
0.9870,0.0130	-12644.49
0.9890,0.0110	-12652.86
0.9894,0.0106	-12648.32
0.9894,0.0106	-12657.39
0.9879,0.0121	-12661.79
0.9927,0.0073	-12663.48
0.9856,0.0144	-12683.15
0.9854,0.0146	-12628.37
0.9882,0.0118	-12639.64
0.9891,0.0109	-12634.85
0.9904,0.0096	-12639.01
0.9923,0.0077	-12624.29
0.9851,0.0149	-12649.53
0.9875,0.0125	-12644.32
0.9885,0.0115	-12657.36
0.9903,0.0097	-12662.16
0.9908,0.0092	-12638.93
0.9919,0.0081	-12629.24
0.9853,0.0147	-12666.28
0.9891,0.0109	-12643.84
0.9884,0.0116	-12657.36
0.9922,0.0078	-12629.17
0.9916,0.0084	-12653.16
0.9911,0.0089	-12638.90
0.9830,0.0170	-12662.74
0.9881,0.0119	-12666.21
0.9861,0.0139	-12640.63
0.9920,0.0080	-12629.21
0.9930,0.0070	-12653.85
0.9904,0.0096	-12657.55
0.9851,0.0149	-12674.70
0.9895,0.0105	-12639.23
0.9861,0.0139	-12644.88
0.9916,0.0084	-12629.31
0.9928,0.0072	-12663.56
0.9891,0.0109	-12643.85
0.9865,0.0135	-12631.80
0.9906,0.0094	-12638.97
0.9834,0.0166	-12666.69
0.9930,0.0070	-12668.69
0.9917,0.0083	-12643.64
0.9897,0.0103	-12643.73
0.9886,0.0114	-12652.89
0.9905,0.0095	-12638.99
0.9864,0.0136	-12653.31
0.9918,0.0082	-12634.06
0.9932,0.0068	-12629.04
0.9895,0.0105	-12657.39
0.9902,0.0098	-12620.59
0.9907,0.0093	-12638.96
0.9851,0.0149	-12653.73
0.9927,0.0073	-12619.25
0.9930,0.0070	-12629.05
0.9900,0.0100	-12634.48
0.9878,0.0122	-12648.61
0.9907,0.0093	-12638.94
0.9810,0.0190	-12659.65
0.9913,0.0087	-12653.08
0.9931,0.0069	-12629.04
0.9879,0.0121	-12639.76
0.9885,0.0115	-12648.44
0.9901,0.0099	-12639.06
0.9788,0.0212	-12672.34
0.9903,0.0097	-12643.65
0.9938,0.0062	-12644.28
0.9865,0.0135	-12653.28
0.9864,0.0136	-12644.76
0.9895,0.0105	-12675.56
0.9826,0.0174	-12683.07
0.9892,0.0108	-12648.34
0.9927,0.0073	-12653.67
0.9882,0.0118	-12644.08
0.9821,0.0179	-12687.12
0.9863,0.0137	-12670.45
0.9847,0.0153	-12637.26
0.9905,0.0095	-12629.69
0.9930,0.0070	-12629.05
0.9876,0.0124	-12653.04
0.9847,0.0153	-12645.55
0.9853,0.0147	-12691.52
0.9828,0.0172	-12658.77
0.9900,0.0100	-12629.89
0.9923,0.0077	-12624.29
0.9834,0.0166	-12674.86
0.9873,0.0127	-12653.09
0.9869,0.0131	-12657.50
0.9836,0.0164	-12678.92
0.9905,0.0095	-12638.98
0.9908,0.0092	-12643.61
0.9842,0.0158	-12641.70
0.9831,0.0169	-12654.60
0.9880,0.0120	-12670.61
0.9791,0.0209	-12668.36
0.9888,0.0112	-12639.45
0.9911,0.0089	-12634.18
0.9832,0.0168	-12683.02
0.9851,0.0149	-12662.11
0.9866,0.0134	-12653.25
0.9739,0.0261	-12700.28
0.9904,0.0096	-12629.72
0.9904,0.0096	-12648.27
0.9860,0.0140	-12653.43
0.9848,0.0152	-12624.65
0.9853,0.0147	-12645.27
0.9804,0.0196	-12659.94
0.9924,0.0076	-12653.49
0.9917,0.0083	-12629.30
0.9838,0.0162	-12670.70
0.9823,0.0177	-12667.02
0.9862,0.0138	-12640.58
0.9830,0.0170	-12650.60
0.9924,0.0076	-12643.75
0.9912,0.0088	-12648.33
0.9811,0.0189	-12655.60
0.9779,0.0221	-12661.41
0.9870,0.0130	-12670.48
0.9856,0.0144	-12653.55
0.9944,0.0056	-12649.88
0.9913,0.0087	-12638.87
0.9831,0.0169	-12674.90
0.9719,0.0281	-12686.84
0.9869,0.0131	-12661.83
0.9873,0.0127	-12648.73
0.9943,0.0057	-12623.93
0.9933,0.0067	-12639.03
0.9791,0.0209	-12672.21
0.9768,0.0232	-12710.70
0.9890,0.0110	-12648.36
0.9872,0.0128	-12653.12
0.9944,0.0056	-12634.29
0.9937,0.0063	-12629.03
0.9811,0.0189	-12659.55
0.9778,0.0222	-12650.08
0.9893,0.0107	-12675.48
0.9860,0.0140	-12653.44
0.9952,0.0048	-12624.02
0.9937,0.0063	-12644.24
0.9819,0.0181	-12655.18
0.9747,0.0253	-12692.72
0.9880,0.0120	-12644.14
0.9824,0.0176	-12683.08
0.9959,0.0041	-12635.30
0.9928,0.0072	-12638.92
0.9838,0.0162	-12654.27
0.9772,0.0228	-12676.85
0.9874,0.0126	-12670.52
0.9797,0.0203	-12679.69
0.9961,0.0039	-12618.84
0.9913,0.0087	-12643.61
0.9851,0.0149	-12662.13
0.9761,0.0239	-12695.92
0.9881,0.0119	-12648.52
0.9799,0.0201	-12683.52
0.9940,0.0060	-12634.17
0.9951,0.0049	-12639.92
0.9830,0.0170	-12658.68
0.9788,0.0212	-12676.18
0.9863,0.0137	-12661.90
0.9826,0.0174	-12654.85
0.9928,0.0072	-12634.00
0.9953,0.0047	-12634.76
0.9820,0.0180	-12667.12
0.9827,0.0173	-12683.06
0.9912,0.0088	-12638.89
0.9851,0.0149	-12636.97
0.9931,0.0069	-12634.01
0.9959,0.0041	-12629.73
0.9865,0.0135	-12670.46
0.9876,0.0124	-12657.41
0.9878,0.0122	-12657.39
0.9818,0.0182	-12675.17
0.9929,0.0071	-12634.00
0.9955,0.0045	-12640.36
0.9866,0.0134	-12657.57
0.9899,0.0101	-12657.45
0.9884,0.0116	-12652.92
0.9823,0.0177	-12675.07
0.9947,0.0053	-12650.15
0.9947,0.0053	-12639.65
0.9874,0.0126	-12644.36
0.9895,0.0105	-12643.77
0.9900,0.0100	-12666.66
0.9799,0.0201	-12679.63
0.9927,0.0073	-12634.00
0.9935,0.0065	-12634.06
0.9868,0.0132	-12640.28
0.9892,0.0108	-12634.77
0.9897,0.0103	-12648.29
0.9820,0.0180	-12659.14
0.9921,0.0079	-12643.69
0.9944,0.0056	-12649.80
0.9878,0.0122	-12661.79
0.9880,0.0120	-12648.56
0.9889,0.0111	-12648.38
0.9839,0.0161	-12658.34
0.9915,0.0085	-12629.33
0.9943,0.0057	-12639.43
0.9857,0.0143	-12649.30
0.9859,0.0141	-12653.45
0.9910,0.0090	-12643.61
0.9833,0.0167	-12670.79
0.9910,0.0090	-12653.00
0.9946,0.0054	-12623.95
0.9861,0.0139	-12661.92
0.9852,0.0148	-12657.90
0.9892,0.0108	-12648.34
0.9830,0.0170	-12658.70
0.9877,0.0123	-12644.23
0.9953,0.0047	-12624.05
0.9873,0.0127	-12653.08
0.9850,0.0150	-12662.15
0.9891,0.0109	-12643.83
0.9828,0.0172	-12646.63
0.9899,0.0101	-12629.94
0.9953,0.0047	-12629.39
0.9871,0.0129	-12657.47
0.9866,0.0134	-12653.26
0.9887,0.0113	-12643.95
0.9885,0.0115	-12644.00
0.9861,0.0139	-12670.45
0.9950,0.0050	-12650.40
0.9880,0.0120	-12644.16
0.9865,0.0135	-12649.00
0.9889,0.0111	-12634.89
0.9906,0.0094	-12666.93
0.9878,0.0122	-12666.18
0.9955,0.0045	-12618.71
0.9902,0.0098	-12643.66
0.9838,0.0162	-12670.70
0.9891,0.0109	-12639.34
0.9911,0.0089	-12638.90
0.9876,0.0124	-12661.79
0.9959,0.0041	-12629.74
0.9924,0.0076	-12629.13
0.9858,0.0142	-12666.22
0.9863,0.0137	-12666.17
0.9917,0.0083	-12629.29
0.9864,0.0136	-12644.77
0.9956,0.0044	-12629.58
0.9922,0.0078	-12643.70
0.9840,0.0160	-12670.66
0.9857,0.0143	-12666.23
0.9931,0.0069	-12629.05
0.9861,0.0139	-12649.13
0.9950,0.0050	-12634.56
0.9928,0.0072	-12624.14
0.9850,0.0150	-12649.61
0.9829,0.0171	-12658.74
0.9926,0.0074	-12638.90
0.9861,0.0139	-12657.66
0.9954,0.0046	-12650.96
0.9929,0.0071	-12619.19
0.9869,0.0131	-12631.60
0.9879,0.0121	-12639.76
0.9940,0.0060	-12629.06
0.9882,0.0118	-12639.66
0.9946,0.0054	-12639.61
0.9928,0.0072	-12634.00
0.9854,0.0146	-12653.64
0.9853,0.0147	-12657.89
0.9947,0.0053	-12639.67
0.9876,0.0124	-12679.29
0.9950,0.0050	-12634.59
0.9930,0.0070	-12643.92
0.9876,0.0124	-12644.27
0.9853,0.0147	-12683.10
0.9945,0.0055	-12634.35
0.9859,0.0141	-12644.96
0.9958,0.0042	-12624.24
0.9927,0.0073	-12638.90
0.9871,0.0129	-12648.79
0.9860,0.0140	-12657.69
0.9929,0.0071	-12648.83
0.9888,0.0112	-12639.45
0.9958,0.0042	-12618.76
0.9930,0.0070	-12638.96
0.9873,0.0127	-12653.10
0.9875,0.0125	-12657.43
0.9909,0.0091	-12653.00
0.9867,0.0133	-12653.25
0.9958,0.0042	-12618.77
0.9925,0.0075	-12648.66
0.9856,0.0144	-12649.32
0.9880,0.0120	-12657.38
0.9947,0.0053	-12660.57
0.9891,0.0109	-12661.88
0.9960,0.0040	-12635.37
0.9920,0.0080	-12634.04
0.9856,0.0144	-12645.13
0.9877,0.0123	-12648.63
0.9936,0.0064	-12634.08
0.9901,0.0099	-12634.45
0.9952,0.0048	-12624.03
0.9914,0.0086	-12653.11
0.9892,0.0108	-12661.89
0.9885,0.0115	-12657.36
0.9947,0.0053	-12639.68
0.9919,0.0081	-12648.47
0.9956,0.0044	-12640.43
0.9906,0.0094	-12629.63
0.9896,0.0104	-12657.41
0.9864,0.0136	-12640.48
0.9945,0.0055	-12629.13
0.9916,0.0084	-12634.08
0.9943,0.0057	-12634.24
0.9920,0.0080	-12643.68
0.9883,0.0117	-12661.80
0.9876,0.0124	-12661.79
0.9939,0.0061	-12639.25
0.9899,0.0101	-12648.28
0.9948,0.0052	-12650.20
0.9928,0.0072	-12648.79
0.9908,0.0092	-12648.29
0.9914,0.0086	-12629.37
0.9952,0.0048	-12640.00
0.9860,0.0140	-12653.43
0.9945,0.0055	-12655.15
0.9933,0.0067	-12629.03
0.9918,0.0082	-12653.25
0.9938,0.0062	-12644.25
0.9956,0.0044	-12635.01
0.9867,0.0133	-12666.16
0.9949,0.0051	-12634.52
0.9931,0.0069	-12663.85
0.9925,0.0075	-12634.00
0.9929,0.0071	-12643.88
0.9947,0.0053	-12623.95
0.9874,0.0126	-12657.44
0.9939,0.0061	-12634.14
0.9915,0.0085	-12619.80
0.9941,0.0059	-12629.07
0.9924,0.0076	-12638.87
0.9946,0.0054	-12639.57
0.9855,0.0145	-12662.04
0.9928,0.0072	-12638.92
0.9928,0.0072	-12643.84
0.9938,0.0062	-12639.20
0.9917,0.0083	-12643.64
0.9944,0.0056	-12623.94
0.9832,0.0168	-12666.75
0.9890,0.0110	-12661.87
0.9919,0.0081	-12634.05
0.9929,0.0071	-12634.00
0.9926,0.0074	-12653.57
0.9948,0.0052	-12650.24
0.9803,0.0197	-12679.54
0.9868,0.0132	-12648.89
0.9929,0.0071	-12634.00
0.9921,0.0079	-12643.68
0.9926,0.0074	-12629.10
0.9952,0.0048	-12624.04
0.9836,0.0164	-12654.36
0.9880,0.0120	-12648.55
0.9924,0.0076	-12643.74
0.9925,0.0075	-12648.67
0.9923,0.0077	-12648.58
0.9954,0.0046	-12634.84
0.9809,0.0191	-12687.25
0.9866,0.0134	-12657.55
0.9917,0.0083	-12648.43
0.9923,0.0077	-12643.73
0.9928,0.0072	-12629.07
0.9954,0.0046	-12629.46
0.9803,0.0197	-12652.15
0.9884,0.0116	-12648.46
0.9912,0.0088	-12634.16
0.9933,0.0067	-12629.03
0.9929,0.0071	-12634.00
0.9953,0.0047	-12634.77
0.9818,0.0182	-12667.20
0.9884,0.0116	-12670.69
0.9918,0.0082	-12643.65
0.9937,0.0063	-12634.09
0.9920,0.0080	-12638.85
0.9940,0.0060	-12634.15
0.9830,0.0170	-12654.63
0.9875,0.0125	-12661.79
0.9897,0.0103	-12630.04
0.9932,0.0068	-12634.02
0.9898,0.0102	-12648.29
0.9949,0.0051	-12623.97
0.9825,0.0175	-12666.95
0.9882,0.0118	-12635.20
0.9884,0.0116	-12635.13
0.9904,0.0096	-12629.74
0.9891,0.0109	-12657.37
0.9946,0.0054	-12639.58
0.9820,0.0180	-12663.14
0.9901,0.0099	-12666.68
0.9889,0.0111	-12670.83
0.9898,0.0102	-12625.40
0.9896,0.0104	-12652.85
0.9945,0.0055	-12629.13
0.9842,0.0158	-12662.36
0.9913,0.0087	-12638.88
0.9882,0.0118	-12652.93
0.9879,0.0121	-12661.79
0.9897,0.0103	-12657.42
0.9944,0.0056	-12644.67
0.9849,0.0151	-12662.17
0.9912,0.0088	-12634.16
0.9867,0.0133	-12640.29
0.9894,0.0106	-12639.26
0.9915,0.0085	-12638.86
0.9941,0.0059	-12639.34
0.9835,0.0165	-12674.84
0.9926,0.0074	-12643.78
0.9871,0.0129	-12653.13
0.9872,0.0128	-12661.81
0.9917,0.0083	-12643.64
0.9944,0.0056	-12623.93
0.9827,0.0173	-12666.91
0.9919,0.0081	-12624.44
0.9863,0.0137	-12653.33
0.9873,0.0127	-12657.45
0.9908,0.0092	-12652.97
0.9950,0.0050	-12634.57
0.9818,0.0182	-12675.17
0.9904,0.0096	-12634.37
0.9893,0.0107	-12643.80
0.9889,0.0111	-12657.36
0.9925,0.0075	-12634.00
0.9957,0.0043	-12624.20
0.9811,0.0189	-12667.48
0.9914,0.0086	-12629.36
0.9883,0.0117	-12639.62
0.9897,0.0103	-12671.13
0.9917,0.0083	-12619.72
0.9954,0.0046	-12634.84
0.9846,0.0154	-12649.79
0.9918,0.0082	-12643.65
0.9883,0.0117	-12639.61
0.9901,0.0099	-12639.06
0.9913,0.0087	-12643.61
0.9943,0.0057	-12639.40
0.9867,0.0133	-12679.07
0.9934,0.0066	-12629.03
0.9902,0.0098	-12648.27
0.9888,0.0112	-12652.87
0.9932,0.0068	-12639.01
0.9941,0.0059	-12629.06
0.9862,0.0138	-12661.91
0.9924,0.0076	-12634.00
0.9912,0.0088	-12638.88
0.9874,0.0126	-12661.79
0.9938,0.0062	-12634.11
0.9937,0.0063	-12629.03
0.9861,0.0139	-12644.89
0.9928,0.0072	-12619.20
0.9913,0.0087	-12629.39
0.9877,0.0123	-12657.40
0.9943,0.0057	-12623.93
0.9928,0.0072	-12643.86
0.9834,0.0166	-12683.02
0.9934,0.0066	-12619.00
0.9902,0.0098	-12657.50
0.9905,0.0095	-12643.63
0.9952,0.0048	-12634.69
0.9918,0.0082	-12653.25
0.9870,0.0130	-12644.50
0.9920,0.0080	-12643.67
0.9870,0.0130	-12666.15
0.9919,0.0081	-12634.05
0.9955,0.0045	-12624.11
0.9911,0.0089	-12638.89
0.9838,0.0162	-12654.28
0.9907,0.0093	-12648.28
0.9875,0.0125	-12639.93
0.9896,0.0104	-12648.30
0.9951,0.0049	-12629.31
0.9927,0.0073	-12634.00
0.9832,0.0168	-12666.76
0.9911,0.0089	-12657.75
0.9843,0.0157	-12666.47
0.9895,0.0105	-12661.95
0.9955,0.0045	-12624.13
0.9925,0.0075	-12638.88
0.9853,0.0147	-12674.69
0.9914,0.0086	-12634.11
0.9841,0.0159	-12650.02
0.9884,0.0116	-12644.03
0.9946,0.0054	-12665.65
0.9913,0.0087	-12653.09
0.9835,0.0165	-12666.65
0.9909,0.0091	-12648.30
0.9877,0.0123	-12661.79
0.9886,0.0114	-12643.97
0.9945,0.0055	-12634.35
0.9893,0.0107	-12652.85
0.9865,0.0135	-12657.59
0.9915,0.0085	-12653.14
0.9900,0.0100	-12639.09
0.9881,0.0119	-12648.53
0.9948,0.0052	-12634.46
0.9875,0.0125	-12635.55
0.9850,0.0150	-12683.07
0.9908,0.0092	-12648.29
0.9890,0.0110	-12652.86
0.9892,0.0108	-12630.25
0.9942,0.0058	-12639.38
0.9895,0.0105	-12643.76
0.9848,0.0152	-12678.88
0.9891,0.0109	-12634.82
0.9892,0.0108	-12648.34
0.9891,0.0109	-12634.82
0.9924,0.0076	-12629.13
0.9896,0.0104	-12634.64
0.9871,0.0129	-12657.48
0.9901,0.0099	-12666.68
0.9875,0.0125	-12674.89
0.9885,0.0115	-12643.98
0.9906,0.0094	-12643.62
0.9901,0.0099	-12634.45
0.9873,0.0127	-12648.73
0.9872,0.0128	-12657.46
0.9907,0.0093	-12657.61
0.9876,0.0124	-12639.92
0.9917,0.0083	-12643.63
0.9887,0.0113	-12652.88
0.9851,0.0149	-12678.89
0.9875,0.0125	-12674.90
0.9918,0.0082	-12653.23
0.9843,0.0157	-12629.22
0.9923,0.0077	-12648.59
0.9875,0.0125	-12657.42
0.9827,0.0173	-12666.89
0.9871,0.0129	-12666.15
0.9908,0.0092	-12643.61
0.9794,0.0206	-12679.80
0.9925,0.0075	-12634.00
0.9857,0.0143	-12666.23
0.9792,0.0208	-12679.85
0.9888,0.0112	-12634.93
0.9915,0.0085	-12653.14
0.9767,0.0233	-12677.07
0.9925,0.0075	-12634.00
0.9887,0.0113	-12639.49
0.9799,0.0201	-12656.30
0.9890,0.0110	-12648.37
0.9911,0.0089	-12653.04
0.9803,0.0197	-12695.15
0.9893,0.0107	-12661.91
0.9867,0.0133	-12648.92
0.9850,0.0150	-12683.06
0.9927,0.0073	-12638.91
0.9915,0.0085	-12638.86
0.9818,0.0182	-12703.10
0.9914,0.0086	-12657.87
0.9842,0.0158	-12662.35
0.9843,0.0157	-12654.04
0.9938,0.0062	-12659.51
0.9913,0.0087	-12643.61
0.9863,0.0137	-12661.90
0.9904,0.0096	-12643.64
0.9846,0.0154	-12649.77
0.9848,0.0152	-12674.71
0.9937,0.0063	-12629.03
0.9890,0.0110	-12639.36
0.9897,0.0103	-12643.73
0.9912,0.0088	-12634.17
0.9839,0.0161	-12650.10
0.9842,0.0158	-12670.62
0.9925,0.0075	-12634.00
0.9930,0.0070	-12638.95
0.9917,0.0083	-12638.85
0.9917,0.0083	-12653.20
0.9842,0.0158	-12666.49
0.9862,0.0138	-12670.45
0.9923,0.0077	-12658.29
0.9942,0.0058	-12639.38
0.9918,0.0082	-12638.85
0.9917,0.0083	-12638.85
0.9822,0.0178	-12671.06
0.9875,0.0125	-12648.70
0.9915,0.0085	-12643.62
0.9945,0.0055	-12644.71
0.9890,0.0110	-12648.36
0.9922,0.0078	-12634.02
0.9816,0.0184	-12667.29
0.9861,0.0139	-12666.19
0.9924,0.0076	-12624.25
0.9941,0.0059	-12623.94
0.9898,0.0102	-12648.28
0.9905,0.0095	-12671.49
0.9795,0.0205	-12687.51
0.9849,0.0151	-12662.17
0.9920,0.0080	-12643.67
0.9939,0.0061	-12639.22
0.9906,0.0094	-12634.30
0.9924,0.0076	-12638.87
0.9810,0.0190	-12671.46
0.9782,0.0218	-12699.24
0.9912,0.0088	-12657.78
0.9946,0.0054	-12639.62
0.9897,0.0103	-12648.29
0.9902,0.0098	-12629.83
0.9854,0.0146	-12662.07
0.9793,0.0207	-12675.96
0.9902,0.0098	-12639.04
0.9937,0.0063	-12644.19
0.9875,0.0125	-12657.42
0.9872,0.0128	-12644.41
0.9856,0.0144	-12666.24
0.9835,0.0165	-12674.84
0.9870,0.0130	-12666.15
0.9933,0.0067	-12634.02
0.9838,0.0162	-12654.27
0.9871,0.0129	-12679.15
0.9868,0.0132	-12661.84
0.9829,0.0171	-12695.20
0.9853,0.0147	-12649.48
0.9927,0.0073	-12638.91
0.9850,0.0150	-12645.43
0.9877,0.0123	-12653.02
0.9860,0.0140	-12657.69
0.9856,0.0144	-12678.92
0.9853,0.0147	-12636.86
0.9919,0.0081	-12643.66
0.9873,0.0127	-12653.10
0.9881,0.0119	-12644.11
0.9877,0.0123	-12657.40
0.9867,0.0133	-12674.77
0.9852,0.0148	-12653.70
0.9892,0.0108	-12639.29
0.9882,0.0118	-12644.08
0.9905,0.0095	-12634.34
0.9860,0.0140	-12657.69
0.9870,0.0130	-12696.45
0.9862,0.0138	-12636.28
0.9893,0.0107	-12648.33
0.9904,0.0096	-12657.56
0.9908,0.0092	-12662.32
0.9826,0.0174	-12658.87
0.9892,0.0108	-12670.92
0.9858,0.0142	-12670.46
0.9915,0.0085	-12638.86
0.9896,0.0104	-12634.63
0.9909,0.0091	-12648.30
0.9842,0.0158	-12666.49
0.9888,0.0112	-12657.36
0.9860,0.0140	-12666.19
0.9914,0.0086	-12648.37
0.9863,0.0137	-12653.36
0.9891,0.0109	-12643.84
0.9834,0.0166	-12654.47
0.9878,0.0122	-12653.01
0.9858,0.0142	-12640.76
0.9893,0.0107	-12648.33
0.9872,0.0128	-12657.46
0.9901,0.0099	-12629.86
0.9832,0.0168	-12658.63
0.9881,0.0119	-12652.96
0.9854,0.0146	-12657.85
0.9898,0.0102	-12634.57
0.9865,0.0135	-12657.58
0.9922,0.0078	-12648.56
0.9808,0.0192	-12675.45
0.9895,0.0105	-12652.85
0.9855,0.0145	-12670.47
0.9899,0.0101	-12634.51
0.9813,0.0187	-12667.39
0.9904,0.0096	-12643.64
0.9854,0.0146	-12674.69
0.9891,0.0109	-12661.88
0.9867,0.0133	-12670.46
0.9908,0.0092	-12638.93
0.9818,0.0182	-12671.19
0.9914,0.0086	-12643.61
0.9843,0.0157	-12649.91
0.9852,0.0148	-12657.91
0.9864,0.0136	-12640.48
0.9887,0.0113	-12643.95
0.9842,0.0158	-12658.22
0.9915,0.0085	-12634.10
0.9831,0.0169	-12662.71
0.9858,0.0142	-12649.26
0.9838,0.0162	-12650.18
0.9886,0.0114	-12648.44
0.9867,0.0133	-12661.85
0.9934,0.0066	-12644.05
0.9816,0.0184	-12651.39
0.9863,0.0137	-12649.06
0.9839,0.0161	-12662.46
0.9850,0.0150	-12670.51
0.9877,0.0123	-12661.79
0.9941,0.0059	-12623.94
0.9844,0.0156	-12678.88
0.9873,0.0127	-12648.73
0.9802,0.0198	-12671.76
0.9847,0.0153	-12641.41
0.9892,0.0108	-12630.26
0.9944,0.0056	-12623.93
0.9859,0.0141	-12678.95
0.9893,0.0107	-12657.38
0.9804,0.0196	-12683.41
0.9841,0.0159	-12666.51
0.9878,0.0122	-12644.21
0.9958,0.0042	-12635.15
0.9848,0.0152	-12683.05
0.9863,0.0137	-12666.17
0.9845,0.0155	-12658.11
0.9848,0.0152	-12653.85
0.9863,0.0137	-12666.18
0.9960,0.0040	-12618.80
0.9835,0.0165	-12666.67
0.9855,0.0145	-12657.82
0.9819,0.0181	-12675.16
0.9878,0.0122	-12652.99
0.9859,0.0141	-12657.71
0.9957,0.0043	-12624.17
0.9843,0.0157	-12662.33
0.9855,0.0145	-12645.18
0.9865,0.0135	-12661.87
0.9853,0.0147	-12674.69
0.9835,0.0165	-12654.39
0.9960,0.0040	-12624.33
0.9864,0.0136	-12657.60
0.9856,0.0144	-12670.47
0.9858,0.0142	-12687.42
0.9855,0.0145	-12683.13
0.9818,0.0182	-12647.24
0.9952,0.0048	-12624.02
0.9881,0.0119	-12657.37
0.9855,0.0145	-12670.47
0.9839,0.0161	-12658.32
0.9810,0.0190	-12667.51
0.9837,0.0163	-12666.60
0.9963,0.0037	-12630.06
0.9872,0.0128	-12653.12
0.9862,0.0138	-12657.65
0.9852,0.0148	-12653.72
0.9765,0.0235	-12688.38
0.9829,0.0171	-12666.83
0.9957,0.0043	-12629.65
0.9892,0.0108	-12652.86
0.9855,0.0145	-12657.80
0.9852,0.0148	-12641.12
0.9765,0.0235	-12666.02
0.9865,0.0135	-12644.72
0.9948,0.0052	-12639.73
0.9859,0.0141	-12644.98
0.9863,0.0137	-12666.17
0.9884,0.0116	-12644.01
0.9774,0.0226	-12665.45
0.9870,0.0130	-12653.17
0.9947,0.0053	-12639.64
0.9872,0.0128	-12635.73
0.9871,0.0129	-12657.48
0.9868,0.0132	-12657.52
0.9764,0.0236	-12710.74
0.9873,0.0127	-12644.40
0.9958,0.0042	-12624.23
0.9907,0.0093	-12638.95
0.9879,0.0121	-12657.38
0.9869,0.0131	-12661.83
0.9750,0.0250	-12681.63
0.9871,0.0129	-12679.16
0.9954,0.0046	-12624.08
0.9908,0.0092	-12638.93
0.9854,0.0146	-12657.85
0.9879,0.0121	-12666.19
0.9777,0.0223	-12676.63
0.9912,0.0088	-12662.52
0.9954,0.0046	-12629.47
0.9907,0.0093	-12657.61
0.9805,0.0195	-12667.71
0.9859,0.0141	-12666.21
0.9820,0.0180	-12655.13
0.9910,0.0090	-12634.20
0.9956,0.0044	-12634.95
0.9914,0.0086	-12624.61
0.9827,0.0173	-12662.86
0.9853,0.0147	-12687.30
0.9844,0.0156	-12649.86
0.9916,0.0084	-12653.16
0.9967,0.0033	-12624.80
0.9914,0.0086	-12643.62
0.9809,0.0191	-12647.88
0.9860,0.0140	-12661.94
0.9828,0.0172	-12650.66
0.9898,0.0102	-12639.12
0.9973,0.0027	-12643.23
0.9910,0.0090	-12662.43
0.9769,0.0231	-12680.74
0.9868,0.0132	-12661.84
0.9828,0.0172	-12646.63
0.9865,0.0135	-12661.87
0.9969,0.0031	-12636.50
0.9903,0.0097	-12671.39
0.9786,0.0214	-12668.60
0.9861,0.0139	-12661.92
0.9815,0.0185	-12679.23
0.9866,0.0134	-12657.56
0.9972,0.0028	-12619.44
0.9875,0.0125	-12674.90
0.9773,0.0227	-12676.80
0.9859,0.0141	-12670.46
0.9805,0.0195	-12695.14
0.9838,0.0162	-12658.39
0.9979,0.0021	-12620.36
0.9886,0.0114	-12648.43
0.9782,0.0218	-12657.42
0.9860,0.0140	-12661.94
0.9800,0.0200	-12683.50
0.9843,0.0157	-12662.33
0.9981,0.0019	-12620.78
0.9897,0.0103	-12648.29
0.9843,0.0157	-12641.66
0.9885,0.0115	-12670.72
0.9776,0.0224	-12661.55
0.9841,0.0159	-12670.64
0.9979,0.0021	-12632.78
0.9891,0.0109	-12670.91
0.9859,0.0141	-12649.23
0.9890,0.0110	-12625.84
0.9783,0.0217	-12687.80
0.9842,0.0158	-12683.02
0.9975,0.0025	-12637.79
0.9892,0.0108	-12634.80
0.9881,0.0119	-12639.68
0.9892,0.0108	-12661.90
0.9830,0.0170	-12670.87
0.9830,0.0170	-12654.64
0.9971,0.0029	-12625.26
0.9879,0.0121	-12630.94
0.9822,0.0178	-12675.09
0.9884,0.0116	-12652.91
0.9814,0.0186	-12671.33
0.9795,0.0205	-12679.75
0.9970,0.0030	-12625.12
0.9854,0.0146	-12649.42
0.9810,0.0190	-12679.35
0.9877,0.0123	-12635.47
0.9829,0.0171	-12654.67
0.9822,0.0178	-12651.03
0.9975,0.0025	-12625.77
0.9862,0.0138	-12644.84
0.9822,0.0178	-12671.07
0.9865,0.0135	-12683.32
0.9851,0.0149	-12662.11
0.9800,0.0200	-12664.06
0.9968,0.0032	-12624.93
0.9881,0.0119	-12652.95
0.9805,0.0195	-12655.99
0.9881,0.0119	-12661.79
0.9884,0.0116	-12666.24
0.9836,0.0164	-12646.20
0.9955,0.0045	-12629.53
0.9852,0.0148	-12657.91
0.9838,0.0162	-12654.27
0.9882,0.0118	-12661.79
0.9899,0.0101	-12657.45
0.9850,0.0150	-12657.96
0.9957,0.0043	-12629.62
0.9817,0.0183	-12659.28
0.9867,0.0133	-12661.85
0.9858,0.0142	-12670.46
0.9876,0.0124	-12644.29
0.9875,0.0125	-12631.23
0.9950,0.0050	-12639.87
0.9803,0.0197	-12663.88
0.9874,0.0126	-12661.80
0.9863,0.0137	-12653.34
0.9857,0.0143	-12662.00
0.9880,0.0120	-12648.55
0.9945,0.0055	-12618.73
0.9814,0.0186	-12667.37
0.9881,0.0119	-12657.37
0.9892,0.0108	-12652.86
0.9852,0.0148	-12683.09
0.9909,0.0091	-12657.69
0.9946,0.0054	-12644.78
0.9815,0.0185	-12655.39
0.9880,0.0120	-12644.15
0.9871,0.0129	-12644.47
0.9876,0.0124	-12639.91
0.9905,0.0095	-12629.70
0.9939,0.0061	-12649.42
0.9824,0.0176	-12675.03
0.9882,0.0118	-12657.36
0.9853,0.0147	-12670.49
0.9869,0.0131	-12644.52
0.9930,0.0070	-12653.81
0.9950,0.0050	-12634.60
0.9849,0.0151	-12674.70
0.9879,0.0121	-12652.99
0.9884,0.0116	-12657.36
0.9862,0.0138	-12670.45
0.9920,0.0080	-12653.33
0.9954,0.0046	-12645.62
0.9869,0.0131	-12657.51
0.9835,0.0165	-12654.41
0.9871,0.0129	-12653.14
0.9903,0.0097	-12648.27
0.9931,0.0069	-12634.01
0.9945,0.0055	-12629.14
0.9870,0.0130	-12644.49
0.9832,0.0168	-12654.53
0.9828,0.0172	-12650.71
0.9902,0.0098	-12652.89
0.9921,0.0079	-12638.86
0.9949,0.0051	-12629.26
0.9852,0.0148	-12691.48
0.9847,0.0153	-12658.06
0.9820,0.0180	-12671.13
0.9898,0.0102	-12671.16
0.9916,0.0084	-12657.93
0.9940,0.0060	-12654.58
0.9832,0.0168	-12674.89
0.9846,0.0154	-12670.57
0.9808,0.0192	-12651.86
0.9888,0.0112	-12657.36
0.9930,0.0070	-12663.73
0.9948,0.0052	-12634.46
0.9821,0.0179	-12667.11
0.9797,0.0203	-12679.71
0.9802,0.0198	-12671.75
0.9878,0.0122	-12644.21
0.9925,0.0075	-12638.89
0.9947,0.0053	-12623.95
0.9842,0.0158	-12649.98
0.9816,0.0184	-12671.26
0.9833,0.0167	-12670.79
0.9903,0.0097	-12625.12
0.9914,0.0086	-12634.12
0.9947,0.0053	-12634.41
0.9827,0.0173	-12650.75
0.9848,0.0152	-12649.68
0.9836,0.0164	-12658.45
0.9878,0.0122	-12648.62
0.9919,0.0081	-12643.66
0.9948,0.0052	-12634.49
0.9836,0.0164	-12654.35
0.9847,0.0153	-12653.88
0.9839,0.0161	-12670.68
0.9872,0.0128	-12648.78
0.9926,0.0074	-12648.69
0.9950,0.0050	-12629.30
0.9806,0.0194	-12659.85
0.9848,0.0152	-12649.68
0.9887,0.0113	-12652.88
0.9878,0.0122	-12653.00
0.9924,0.0076	-12648.60
0.9944,0.0056	-12629.11
0.9831,0.0169	-12654.61
0.9803,0.0197	-12683.44
0.9886,0.0114	-12652.89
0.9860,0.0140	-12644.91
0.9929,0.0071	-12634.00
0.9935,0.0065	-12623.99
0.9838,0.0162	-12691.23
0.9820,0.0180	-12655.16
0.9837,0.0163	-12650.22
0.9843,0.0157	-12670.60
0.9922,0.0078	-12648.55
0.9923,0.0077	-12643.72
0.9814,0.0186	-12655.44
0.9852,0.0148	-12641.08
0.9858,0.0142	-12657.73
0.9877,0.0123	-12653.02
0.9931,0.0069	-12643.97
0.9921,0.0079	-12643.69
0.9851,0.0149	-12649.54
0.9861,0.0139	-12661.92
0.9849,0.0151	-12641.29
0.9914,0.0086	-12638.87
0.9934,0.0066	-12629.03
0.9915,0.0085	-12657.92
0.9806,0.0194	-12663.74
0.9875,0.0125	-12653.06
0.9858,0.0142	-12657.75
0.9913,0.0087	-12629.41
0.9942,0.0058	-12634.21
0.9903,0.0097	-12639.02
0.9788,0.0212	-12664.67
0.9869,0.0131	-12657.51
0.9838,0.0162	-12674.80
0.9899,0.0101	-12648.28
0.9935,0.0065	-12634.06
0.9899,0.0101	-12657.45
0.9797,0.0203	-12648.69
0.9878,0.0122	-12661.79
0.9828,0.0172	-12662.81
0.9900,0.0100	-12652.87
0.9935,0.0065	-12649.17
0.9899,0.0101	-12639.12
0.9830,0.0170	-12691.15
0.9875,0.0125	-12657.43
0.9834,0.0166	-12695.26
0.9890,0.0110	-12630.36
0.9944,0.0056	-12634.29
0.9886,0.0114	-12666.28
0.9849,0.0151	-12670.52
0.9887,0.0113	-12648.41
0.9798,0.0202	-12671.90
0.9894,0.0106	-12652.85
0.9944,0.0056	-12649.88
0.9884,0.0116	-12652.91
0.9826,0.0174	-12658.88
0.9906,0.0094	-12634.31
0.9849,0.0151	-12678.88
0.9878,0.0122	-12670.57
0.9932,0.0068	-12644.00
0.9867,0.0133	-12653.24
0.9859,0.0141	-12657.72
0.9913,0.0087	-12643.61
0.9831,0.0169	-12674.91
0.9863,0.0137	-12679.01
0.9936,0.0064	-12659.33
0.9871,0.0129	-12657.48
0.9889,0.0111	-12639.40
0.9923,0.0077	-12634.01
0.9858,0.0142	-12653.49
0.9886,0.0114	-12635.02
0.9935,0.0065	-12629.03
0.9882,0.0118	-12652.94
0.9915,0.0085	-12634.11
0.9923,0.0077	-12638.87
0.9885,0.0115	-12666.27
0.9865,0.0135	-12679.03
0.9939,0.0061	-12629.05
0.9890,0.0110	-12643.86
0.9919,0.0081	-12643.66
0.9919,0.0081	-12638.85
0.9876,0.0124	-12661.79
0.9859,0.0141	-12666.21
0.9933,0.0067	-12624.03
0.9903,0.0097	-12643.65
0.9926,0.0074	-12653.58
0.9919,0.0081	-12634.05
0.9841,0.0159	-12683.01
0.9826,0.0174	-12670.96
0.9923,0.0077	-12638.86
0.9897,0.0103	-12661.98
0.9914,0.0086	-12653.10
0.9939,0.0061	-12649.45
0.9851,0.0149	-12645.36
0.9846,0.0154	-12666.41
0.9921,0.0079	-12638.85
0.9885,0.0115	-12670.71
0.9938,0.0062	-12639.19
0.9940,0.0060	-12639.28
0.9828,0.0172	-12662.83
0.9864,0.0136	-12644.73
0.9907,0.0093	-12643.62
0.9883,0.0117	-12644.05
0.9949,0.0051	-12618.70
0.9941,0.0059	-12629.07
0.9842,0.0158	-12670.62
0.9871,0.0129	-12653.14
0.9882,0.0118	-12652.93
0.9849,0.0151	-12657.99
0.9949,0.0051	-12634.50
0.9939,0.0061	-12623.95
0.9840,0.0160	-12662.42
0.9886,0.0114	-12635.05
0.9869,0.0131	-12648.86
0.9847,0.0153	-12658.06
0.9955,0.0045	-12640.29
0.9921,0.0079	-12638.86
0.9824,0.0176	-12671.03
0.9872,0.0128	-12648.78
0.9871,0.0129	-12679.17
0.9839,0.0161	-12666.56
0.9956,0.0044	-12640.43
0.9909,0.0091	-12638.91
0.9836,0.0164	-12662.54
0.9886,0.0114	-12652.89
0.9850,0.0150	-12662.14
0.9830,0.0170	-12638.44
0.9954,0.0046	-12629.49
0.9899,0.0101	-12662.05
0.9829,0.0171	-12654.68
0.9871,0.0129	-12648.79
0.9848,0.0152	-12666.36
0.9840,0.0160	-12662.40
0.9950,0.0050	-12634.58
0.9909,0.0091	-12634.22
0.9793,0.0207	-12679.85
0.9867,0.0133	-12657.54
0.9846,0.0154	-12658.10
0.9840,0.0160	-12654.19
0.9951,0.0049	-12645.24
0.9924,0.0076	-12643.75
0.9794,0.0206	-12691.38
0.9875,0.0125	-12644.30
0.9812,0.0188	-12659.52
0.9862,0.0138	-12644.86
0.9958,0.0042	-12635.15
0.9906,0.0094	-12648.28
0.9808,0.0192	-12663.67
0.9901,0.0099	-12643.67
0.9826,0.0174	-12679.03
0.9872,0.0128	-12657.46
0.9953,0.0047	-12640.09
0.9893,0.0107	-12652.85
0.9809,0.0191	-12675.44
0.9890,0.0110	-12648.36
0.9821,0.0179	-12679.12
0.9833,0.0167	-12666.73
0.9944,0.0056	-12644.67
0.9896,0.0104	-12666.51
0.9791,0.0209	-12676.07
0.9895,0.0105	-12671.04
0.9803,0.0197	-12659.98
0.9843,0.0157	-12658.19
0.9936,0.0064	-12634.07
0.9904,0.0096	-12662.20
0.9790,0.0210	-12679.95
0.9902,0.0098	-12639.03
0.9824,0.0176	-12671.01
0.9848,0.0152	-12649.69
0.9928,0.0072	-12629.07
0.9875,0.0125	-12653.05
0.9816,0.0184	-12679.22
0.9904,0.0096	-12648.27
0.9850,0.0150	-12670.52
0.9900,0.0100	-12648.28
0.9912,0.0088	-12643.61
0.9881,0.0119	-12661.79
0.9825,0.0175	-12658.91
0.9903,0.0097	-12634.40
0.9847,0.0153	-12662.21
0.9894,0.0106	-12648.31
0.9922,0.0078	-12634.02
0.9884,0.0116	-12679.57
0.9830,0.0170	-12683.03
0.9894,0.0106	-12634.73
0.9850,0.0150	-12662.16
0.9878,0.0122	-12635.41
0.9945,0.0055	-12634.32
0.9873,0.0127	-12644.38
0.9815,0.0185	-12675.26
0.9909,0.0091	-12634.24
0.9861,0.0139	-12674.71
0.9876,0.0124	-12657.41
0.9925,0.0075	-12634.00
0.9882,0.0118	-12670.64
0.9855,0.0145	-12657.83
0.9915,0.0085	-12657.89
0.9847,0.0153	-12666.38
0.9918,0.0082	-12638.85
0.9925,0.0075	-12634.00
0.9896,0.0104	-12643.73
0.9855,0.0145	-12657.82
0.9923,0.0077	-12663.15
0.9845,0.0155	-12649.80
0.9901,0.0099	-12629.86
0.9923,0.0077	-12624.30
0.9882,0.0118	-12648.51
0.9839,0.0161	-12683.01
0.9923,0.0077	-12653.46
0.9822,0.0178	-12667.07
0.9908,0.0092	-12667.00
0.9904,0.0096	-12639.00
0.9920,0.0080	-12658.14
0.9854,0.0146	-12678.90
0.9914,0.0086	-12662.60
0.9831,0.0169	-12646.48
0.9914,0.0086	-12643.61
0.9909,0.0091	-12648.30
0.9916,0.0084	-12634.08
0.9861,0.0139	-12640.63
0.9923,0.0077	-12638.87
0.9839,0.0161	-12691.23
0.9902,0.0098	-12634.42
0.9927,0.0073	-12634.00
0.9917,0.0083	-12634.08
0.9883,0.0117	-12652.93
0.9924,0.0076	-12634.00
0.9837,0.0163	-12683.01
0.9879,0.0121	-12644.18
0.9931,0.0069	-12638.99
0.9914,0.0086	-12638.87
0.9903,0.0097	-12629.78
0.9920,0.0080	-12638.85
0.9856,0.0144	-12662.02
0.9871,0.0129	-12644.47
0.9921,0.0079	-12653.35
0.9930,0.0070	-12643.91
0.9854,0.0146	-12645.21
0.9925,0.0075	-12634.00
0.9902,0.0098	-12634.42
0.9870,0.0130	-12674.81
0.9917,0.0083	-12624.51
0.9918,0.0082	-12638.85
0.9880,0.0120	-12670.61
0.9934,0.0066	-12644.07
0.9899,0.0101	-12629.96
0.9889,0.0111	-12639.40
0.9908,0.0092	-12662.31
0.9916,0.0084	-12648.41
0.9866,0.0134	-12657.56
0.9933,0.0067	-12644.05
0.9900,0.0100	-12634.48
0.9891,0.0109	-12639.33
0.9912,0.0088	-12629.43
0.9912,0.0088	-12648.33
0.9848,0.0152	-12662.19
0.9933,0.0067	-12634.03
0.9873,0.0127	-12683.58
0.9883,0.0117	-12626.31
0.9905,0.0095	-12634.33
0.9899,0.0101	-12652.87
0.9852,0.0148	-12662.11
0.9934,0.0066	-12629.03
0.9882,0.0118	-12648.51
0.9880,0.0120	-12670.62
0.9915,0.0085	-12648.38
0.9912,0.0088	-12629.44
0.9854,0.0146	-12662.05
0.9937,0.0063	-12639.16
0.9898,0.0102	-12652.86
0.9893,0.0107	-12643.80
0.9912,0.0088	-12653.06
0.9891,0.0109	-12643.85
0.9851,0.0149	-12649.53
0.9938,0.0062	-12634.11
0.9889,0.0111	-12652.87
0.9889,0.0111	-12634.92
0.9917,0.0083	-12653.22
0.9869,0.0131	-12648.86
0.9840,0.0160	-12662.42
0.9944,0.0056	-12649.86
0.9847,0.0153	-12662.22
0.9898,0.0102	-12652.86
0.9941,0.0059	-12639.30
0.9867,0.0133	-12648.91
0.9880,0.0120	-12661.79
0.9931,0.0069	-12648.93
0.9865,0.0135	-12644.72
0.9909,0.0091	-12653.00
0.9935,0.0065	-12624.00
0.9875,0.0125	-12657.42
0.9883,0.0117	-12644.06
0.9935,0.0065	-12629.03
0.9868,0.0132	-12640.29
0.9881,0.0119	-12657.37
0.9920,0.0080	-12643.68
0.9843,0.0157	-12666.46
0.9881,0.0119	-12635.28
0.9917,0.0083	-12634.07
0.9842,0.0158	-12666.50
0.9877,0.0123	-12644.25
0.9934,0.0066	-12649.10
0.9848,0.0152	-12658.01
0.9882,0.0118	-12652.93
0.9938,0.0062	-12634.11
0.9868,0.0132	-12653.20
0.9868,0.0132	-12653.21
0.9936,0.0064	-12654.26
0.9854,0.0146	-12640.98
0.9913,0.0087	-12653.09
0.9943,0.0057	-12629.09
0.9840,0.0160	-12666.55
0.9872,0.0128	-12657.46
0.9940,0.0060	-12629.06
0.9860,0.0140	-12661.94
0.9908,0.0092	-12638.93
0.9943,0.0057	-12618.78
0.9865,0.0135	-12653.28
0.9826,0.0174	-12675.01
0.9935,0.0065	-12644.11
0.9856,0.0144	-12653.57
0.9888,0.0112	-12670.79
0.9926,0.0074	-12643.80
0.9880,0.0120	-12644.16
0.9839,0.0161	-12695.35
0.9945,0.0055	-12655.09
0.9882,0.0118	-12644.09
0.9875,0.0125	-12653.05
0.9929,0.0071	-12634.00
0.9884,0.0116	-12670.69
0.9847,0.0153	-12645.57
0.9953,0.0047	-12629.43
0.9894,0.0106	-12625.63
0.9871,0.0129	-12661.82
0.9928,0.0072	-12648.80
0.9877,0.0123	-12661.79
0.9828,0.0172	-12662.81
0.9949,0.0051	-12618.70
0.9914,0.0086	-12638.87
0.9852,0.0148	-12653.70
0.9942,0.0058	-12639.39
0.9895,0.0105	-12671.06
0.9854,0.0146	-12636.81
0.9941,0.0059	-12649.54
0.9915,0.0085	-12638.86
0.9872,0.0128	-12644.44
0.9939,0.0061	-12639.22
0.9910,0.0090	-12653.01
0.9864,0.0136	-12649.04
0.9942,0.0058	-12649.65
0.9941,0.0059	-12639.34
0.9869,0.0131	-12666.15
0.9938,0.0062	-12629.04
0.9920,0.0080	-12638.85
0.9869,0.0131	-12666.15
0.9935,0.0065	-12639.10
0.9951,0.0049	-12645.22
0.9870,0.0130	-12657.49
0.9918,0.0082	-12638.85
0.9932,0.0068	-12634.02
0.9866,0.0134	-12666.16
0.9933,0.0067	-12644.01
0.9954,0.0046	-12629.46
0.9861,0.0139	-12657.67
0.9906,0.0094	-12629.65
0.9938,0.0062	-12629.04
0.9870,0.0130	-12666.15
0.9918,0.0082	-12648.45
0.9955,0.0045	-12624.12
0.9865,0.0135	-12653.29
0.9865,0.0135	-12636.15
0.9928,0.0072	-12658.61
0.9872,0.0128	-12661.81
0.9933,0.0067	-12634.04
0.9954,0.0046	-12629.46
0.9903,0.0097	-12629.76
0.9868,0.0132	-12674.78
0.9941,0.0059	-12629.07
0.9885,0.0115	-12648.45
0.9924,0.0076	-12643.74
0.9948,0.0052	-12629.23
0.9912,0.0088	-12643.61
0.9845,0.0155	-12653.99
0.9946,0.0054	-12639.57
0.9900,0.0100	-12634.49
0.9918,0.0082	-12624.47
0.9945,0.0055	-12649.90
0.9910,0.0090	-12624.80
0.9848,0.0152	-12653.83
0.9933,0.0067	-12634.03
0.9903,0.0097	-12643.65
0.9910,0.0090	-12648.31
0.9932,0.0068	-12639.00
0.9925,0.0075	-12638.88
0.9869,0.0131	-12648.85
0.9932,0.0068	-12634.02
0.9888,0.0112	-12661.84
0.9908,0.0092	-12634.25
0.9934,0.0066	-12649.06
0.9914,0.0086	-12648.36
0.9888,0.0112	-12684.26
0.9931,0.0069	-12643.94
0.9858,0.0142	-12674.70
0.9910,0.0090	-12634.19
0.9939,0.0061	-12644.34
0.9909,0.0091	-12643.61
0.9884,0.0116	-12657.36
0.9937,0.0063	-12623.97
0.9866,0.0134	-12648.98
0.9917,0.0083	-12638.85
0.9929,0.0071	-12629.06
0.9914,0.0086	-12634.12
0.9887,0.0113	-12643.94
0.9924,0.0076	-12648.63
0.9846,0.0154	-12666.40
0.9933,0.0067	-12629.03
0.9929,0.0071	-12643.90
0.9889,0.0111	-12639.39
0.9877,0.0123	-12666.17
0.9928,0.0072	-12643.85
0.9857,0.0143	-12661.99
0.9929,0.0071	-12634.00
0.9911,0.0089	-12638.89
0.9901,0.0099	-12662.10
0.9883,0.0117	-12666.24
0.9923,0.0077	-12648.58
0.9867,0.0133	-12644.60
0.9930,0.0070	-12619.12
0.9915,0.0085	-12638.86
0.9916,0.0084	-12638.86
0.9890,0.0110	-12643.87
0.9920,0.0080	-12653.32
0.9879,0.0121	-12652.97
0.9934,0.0066	-12649.10
0.9931,0.0069	-12638.99
0.9887,0.0113	-12657.36
0.9890,0.0110	-12661.87
0.9921,0.0079	-12643.69
0.9877,0.0123	-12648.62
0.9944,0.0056	-12649.86
0.9911,0.0089	-12634.19
0.9907,0.0093	-12648.28
0.9887,0.0113	-12635.01
0.9927,0.0073	-12648.72
0.9887,0.0113	-12648.42
0.9954,0.0046	-12624.08
0.9921,0.0079	-12634.02
0.9918,0.0082	-12638.85
0.9897,0.0103	-12662.00
0.9938,0.0062	-12634.11
0.9865,0.0135	-12653.30
0.9954,0.0046	-12629.46
0.9909,0.0091	-12638.92
0.9902,0.0098	-12625.21
0.9920,0.0080	-12643.67
0.9927,0.0073	-12643.82
0.9870,0.0130	-12661.82
0.9948,0.0052	-12634.48
0.9913,0.0087	-12653.09
0.9911,0.0089	-12638.90
0.9918,0.0082	-12638.85
0.9913,0.0087	-12648.35
0.9880,0.0120	-12639.75
0.9921,0.0079	-12634.02
0.9910,0.0090	-12629.49
0.9917,0.0083	-12653.21
0.9907,0.0093	-12643.62
0.9922,0.0078	-12638.86
0.9889,0.0111	-12639.39
0.9886,0.0114	-12657.36
0.9900,0.0100	-12648.28
0.9919,0.0081	-12643.66
0.9929,0.0071	-12624.11
0.9907,0.0093	-12652.95
0.9886,0.0114	-12639.49
0.9902,0.0098	-12666.73
0.9898,0.0102	-12652.86
0.9904,0.0096	-12639.00
0.9905,0.0095	-12643.63
0.9903,0.0097	-12643.65
0.9887,0.0113	-12652.88
0.9899,0.0101	-12639.11
0.9872,0.0128	-12657.46
0.9895,0.0105	-12666.48
0.9899,0.0101	-12634.53
0.9908,0.0092	-12634.24
0.9881,0.0119	-12644.11
0.9896,0.0104	-12648.30
0.9865,0.0135	-12644.69
0.9892,0.0108	-12625.75
0.9902,0.0098	-12639.04
0.9906,0.0094	-12652.94
0.9921,0.0079	-12629.20
0.9898,0.0102	-12643.71
0.9840,0.0160	-12674.78
0.9886,0.0114	-12648.44
0.9912,0.0088	-12643.61
0.9889,0.0111	-12670.83
0.9931,0.0069	-12629.04
0.9876,0.0124	-12635.54
0.9826,0.0174	-12670.96
0.9901,0.0099	-12639.07
0.9901,0.0099	-12639.05
0.9885,0.0115	-12661.81
0.9926,0.0074	-12624.19
0.9869,0.0131	-12661.83
0.9842,0.0158	-12654.11
0.9873,0.0127	-12648.75
0.9887,0.0113	-12652.88
0.9882,0.0118	-12657.37
0.9919,0.0081	-12658.06
0.9859,0.0141	-12640.71
0.9836,0.0164	-12654.35
0.9888,0.0112	-12634.94
0.9889,0.0111	-12639.39
0.9855,0.0145	-12645.16
0.9907,0.0093	-12638.95
0.9888,0.0112	-12648.40
0.9854,0.0146	-12657.84
0.9907,0.0093	-12648.29
0.9910,0.0090	-12648.31
0.9855,0.0145	-12653.60
0.9892,0.0108	-12639.30
0.9885,0.0115	-12661.81
0.9838,0.0162	-12670.69
0.9895,0.0105	-12639.20
0.9915,0.0085	-12648.38
0.9875,0.0125	-12657.42
0.9897,0.0103	-12634.61
0.9894,0.0106	-12657.39
0.9818,0.0182	-12671.20
0.9913,0.0087	-12653.08
0.9902,0.0098	-12648.27
0.9852,0.0148	-12641.08
0.9917,0.0083	-12629.30
0.9894,0.0106	-12634.70
0.9789,0.0211	-12679.95
0.9908,0.0092	-12634.26
0.9901,0.0099	-12643.67
0.9877,0.0123	-12661.79
0.9924,0.0076	-12643.74
0.9912,0.0088	-12638.89
0.9808,0.0192	-12667.58
0.9905,0.0095	-12643.63
0.9935,0.0065	-12629.03
0.9895,0.0105	-12639.23
0.9918,0.0082	-12653.22
0.9902,0.0098	-12639.03
0.9814,0.0186	-12667.35
0.9899,0.0101	-12643.69
0.9919,0.0081	-12634.05
0.9884,0.0116	-12652.91
0.9929,0.0071	-12648.81
0.9906,0.0094	-12643.62
0.9825,0.0175	-12658.90
0.9869,0.0131	-12644.56
0.9917,0.0083	-12643.64
0.9861,0.0139	-12653.39
0.9950,0.0050	-12629.27
0.9896,0.0104	-12652.85
0.9868,0.0132	-12657.52
0.9855,0.0145	-12674.69
0.9912,0.0088	-12638.88
0.9861,0.0139	-12636.37
0.9960,0.0040	-12635.36
0.9885,0.0115	-12652.90
0.9858,0.0142	-12653.51
0.9874,0.0126	-12679.25
0.9928,0.0072	-12643.85
0.9858,0.0142	-12645.03
0.9953,0.0047	-12640.14
0.9888,0.0112	-12675.26
0.9874,0.0126	-12644.37
0.9869,0.0131	-12657.51
0.9923,0.0077	-12638.87
0.9836,0.0164	-12670.74
0.9953,0.0047	-12645.44
0.9902,0.0098	-12648.27
0.9854,0.0146	-12670.48
0.9849,0.0151	-12641.31
0.9918,0.0082	-12643.65
0.9846,0.0154	-12678.88
0.9947,0.0053	-12634.41
0.9912,0.0088	-12648.33
0.9893,0.0107	-12639.27
0.9822,0.0178	-12679.09
0.9918,0.0082	-12629.26
0.9829,0.0171	-12654.69
0.9950,0.0050	-12623.99
0.9922,0.0078	-12643.70
0.9887,0.0113	-12648.42
0.9776,0.0224	-12680.46
0.9933,0.0067	-12649.04
0.9838,0.0162	-12654.28
0.9949,0.0051	-12623.98
0.9928,0.0072	-12638.93
0.9843,0.0157	-12674.75
0.9851,0.0149	-12657.93
0.9907,0.0093	-12638.95
0.9819,0.0181	-12655.17
0.9938,0.0062	-12634.12
0.9934,0.0066	-12634.05
0.9833,0.0167	-12662.64
0.9863,0.0137	-12670.45
0.9915,0.0085	-12648.38
0.9823,0.0177	-12650.96
0.9936,0.0064	-12623.98
0.9919,0.0081	-12662.86
0.9861,0.0139	-12644.89
0.9843,0.0157	-12683.02
0.9917,0.0083	-12634.07
0.9833,0.0167	-12674.87
0.9931,0.0069	-12643.97
0.9927,0.0073	-12643.82
0.9871,0.0129	-12648.81
0.9864,0.0136	-12657.59
0.9905,0.0095	-12638.98
0.9856,0.0144	-12653.58
0.9927,0.0073	-12624.18
0.9921,0.0079	-12634.02
0.9858,0.0142	-12657.74
0.9863,0.0137	-12644.78
0.9879,0.0121	-12630.98
0.9860,0.0140	-12666.20
0.9917,0.0083	-12648.42
0.9928,0.0072	-12624.15
0.9873,0.0127	-12635.66
0.9895,0.0105	-12666.48
0.9900,0.0100	-12634.50
0.9883,0.0117	-12652.93
0.9912,0.0088	-12653.06
0.9935,0.0065	-12664.22
0.9879,0.0121	-12661.79
0.9913,0.0087	-12643.61
0.9870,0.0130	-12653.16
0.9866,0.0134	-12648.95
0.9907,0.0093	-12638.95
0.9922,0.0078	-12634.01
0.9891,0.0109	-12648.36
0.9931,0.0069	-12668.76
0.9887,0.0113	-12630.53
0.9851,0.0149	-12670.51
0.9895,0.0105	-12648.30
0.9922,0.0078	-12634.02
0.9885,0.0115	-12643.98
0.9938,0.0062	-12639.19
0.9892,0.0108	-12625.75
0.9849,0.0151	-12666.36
0.9897,0.0103	-12643.73
0.9917,0.0083	-12643.64
0.9908,0.0092	-12634.24
0.9937,0.0063	-12644.20
0.9876,0.0124	-12648.65
0.9842,0.0158	-12662.35
0.9875,0.0125	-12644.32
0.9916,0.0084	-12648.39
0.9908,0.0092	-12638.93
0.9928,0.0072	-12634.00
0.9877,0.0123	-12648.63
0.9825,0.0175	-12658.89
0.9863,0.0137	-12653.35
0.9938,0.0062	-12639.19
0.9912,0.0088	-12624.69
0.9894,0.0106	-12643.78
0.9879,0.0121	-12635.35
0.9830,0.0170	-12670.87
0.9848,0.0152	-12674.71
0.9928,0.0072	-12634.00
0.9915,0.0085	-12643.62
0.9893,0.0107	-12625.71
0.9898,0.0102	-12648.28
0.9846,0.0154	-12658.08
0.9861,0.0139	-12653.42
0.9920,0.0080	-12634.04
0.9899,0.0101	-12652.86
0.9875,0.0125	-12644.33
0.9893,0.0107	-12670.97
0.9852,0.0148	-12678.89
0.9887,0.0113	-12643.95
0.9928,0.0072	-12643.85
0.9909,0.0091	-12629.53
0.9853,0.0147	-12662.09
0.9906,0.0094	-12648.28
0.9870,0.0130	-12666.15
0.9910,0.0090	-12648.31
0.9934,0.0066	-12634.04
0.9934,0.0066	-12644.06
0.9813,0.0187	-12659.46
0.9914,0.0086	-12624.61
0.9882,0.0118	-12652.93
0.9913,0.0087	-12638.87
0.9929,0.0071	-12653.78
0.9952,0.0048	-12629.38
0.9857,0.0143	-12653.52
0.9898,0.0102	-12666.59
0.9884,0.0116	-12652.92
0.9912,0.0088	-12638.89
0.9914,0.0086	-12634.12
0.9941,0.0059	-12629.07
0.9858,0.0142	-12636.53
0.9892,0.0108	-12679.96
0.9889,0.0111	-12657.36
0.9899,0.0101	-12652.87
0.9909,0.0091	-12648.30
0.9943,0.0057	-12634.27
0.9870,0.0130	-12661.82
0.9897,0.0103	-12671.13
0.9885,0.0115	-12648.44
0.9900,0.0100	-12639.08
0.9908,0.0092	-12638.94
0.9950,0.0050	-12629.28
0.9882,0.0118	-12666.22
0.9905,0.0095	-12643.63
0.9889,0.0111	-12639.40
0.9916,0.0084	-12634.09
0.9930,0.0070	-12634.00
0.9953,0.0047	-12634.73
0.9894,0.0106	-12652.85
0.9890,0.0110	-12630.39
0.9859,0.0141	-12661.97
0.9921,0.0079	-12643.69
0.9935,0.0065	-12644.11
0.9940,0.0060	-12639.29
0.9902,0.0098	-12639.03
0.9891,0.0109	-12652.86
0.9844,0.0156	-12645.70
0.9922,0.0078	-12634.01
0.9931,0.0069	-12634.01
0.9941,0.0059	-12618.80
0.9913,0.0087	-12667.30
0.9901,0.0099	-12652.88
0.9852,0.0148	-12657.91
0.9937,0.0063	-12634.10
0.9938,0.0062	-12639.20
0.9931,0.0069	-12663.80
0.9903,0.0097	-12648.27
0.9910,0.0090	-12638.91
0.9844,0.0156	-12674.73
0.9937,0.0063	-12634.09
0.9943,0.0057	-12644.56
0.9927,0.0073	-12634.00
0.9911,0.0089	-12643.61
0.9906,0.0094	-12643.62
0.9868,0.0132	-12661.83
0.9920,0.0080	-12653.30
0.9945,0.0055	-12623.94
0.9935,0.0065	-12639.08
0.9901,0.0099	-12639.06
0.9922,0.0078	-12643.71
0.9894,0.0106	-12639.24
0.9904,0.0096	-12657.54
0.9938,0.0062	-12623.96
0.9952,0.0048	-12624.04
0.9905,0.0095	-12662.23
0.9923,0.0077	-12653.44
0.9902,0.0098	-12629.80
0.9895,0.0105	-12639.22
0.9916,0.0084	-12629.31
0.9956,0.0044	-12629.58
0.9901,0.0099	-12652.88
0.9927,0.0073	-12638.91
0.9907,0.0093	-12648.28
0.9887,0.0113	-12648.42
0.9933,0.0067	-12629.03
0.9940,0.0060	-12654.62
0.9905,0.0095	-12652.92
0.9948,0.0052	-12629.22
0.9898,0.0102	-12648.28
0.9908,0.0092	-12652.97
0.9935,0.0065	-12644.10
0.9942,0.0058	-12618.78
0.9920,0.0080	-12653.32
0.9950,0.0050	-12629.28
0.9894,0.0106	-12639.25
0.9921,0.0079	-12634.03
0.9942,0.0058	-12634.22
0.9932,0.0068	-12648.99
0.9919,0.0081	-12629.24
0.9952,0.0048	-12629.38
0.9904,0.0096	-12629.72
0.9917,0.0083	-12653.20
0.9941,0.0059	-12644.42
0.9913,0.0087	-12653.09
0.9917,0.0083	-12629.29
0.9953,0.0047	-12624.06
0.9904,0.0096	-12629.74
0.9910,0.0090	-12638.91
0.9937,0.0063	-12634.09
0.9928,0.0072	-12634.00
0.9925,0.0075	-12648.64
0.9949,0.0051	-12650.35
0.9912,0.0088	-12634.17
0.9911,0.0089	-12653.03
0.9925,0.0075	-12619.35
0.9941,0.0059	-12623.94
0.9917,0.0083	-12643.64
0.9939,0.0061	-12634.13
0.9905,0.0095	-12629.69
0.9909,0.0091	-12676.47
0.9930,0.0070	-12653.80
0.9935,0.0065	-12629.03
0.9929,0.0071	-12653.74
0.9932,0.0068	-12634.02
0.9918,0.0082	-12638.85
0.9888,0.0112	-12643.90
0.9940,0.0060	-12634.15
0.9939,0.0061	-12644.31
0.9931,0.0069	-12638.99
0.9948,0.0052	-12623.96
0.9926,0.0074	-12638.90
0.9875,0.0125	-12648.69
0.9935,0.0065	-12629.03
0.9942,0.0058	-12644.50
0.9936,0.0064	-12644.17
0.9942,0.0058	-12649.62
0.9920,0.0080	-12648.49
0.9881,0.0119	-12644.12
0.9922,0.0078	-12634.01
0.9937,0.0063	-12634.09
0.9914,0.0086	-12648.36
0.9946,0.0054	-12639.59
0.9901,0.0099	-12671.32
0.9860,0.0140	-12653.44
0.9938,0.0062	-12644.25
0.9922,0.0078	-12634.02
0.9933,0.0067	-12634.03
0.9938,0.0062	-12644.27
0.9908,0.0092	-12638.93
0.9885,0.0115	-12657.36
0.9944,0.0056	-12629.12
0.9942,0.0058	-12639.37
0.9921,0.0079	-12638.86
0.9933,0.0067	-12639.02
0.9912,0.0088	-12634.17
0.9892,0.0108	-12643.81
0.9952,0.0048	-12629.35
0.9946,0.0054	-12639.57
0.9920,0.0080	-12629.22
0.9944,0.0056	-12634.28
0.9927,0.0073	-12634.00
0.9889,0.0111	-12652.87
0.9954,0.0046	-12634.84
0.9947,0.0053	-12639.67
0.9930,0.0070	-12643.90
0.9956,0.0044	-12635.03
0.9933,0.0067	-12634.03
0.9898,0.0102	-12662.01
0.9956,0.0044	-12640.40
0.9940,0.0060	-12639.27
0.9925,0.0075	-12653.55
0.9958,0.0042	-12635.19
0.9919,0.0081	-12643.65
0.9893,0.0107	-12666.43
0.9957,0.0043	-12640.55
0.9926,0.0074	-12648.68
0.9912,0.0088	-12638.89
0.9953,0.0047	-12634.77
0.9909,0.0091	-12652.99
0.9888,0.0112	-12648.39
0.9960,0.0040	-12618.81
0.9913,0.0087	-12643.61
0.9891,0.0109	-12657.37
0.9947,0.0053	-12623.95
0.9904,0.0096	-12657.55
0.9881,0.0119	-12652.95
0.9966,0.0034	-12630.45
0.9915,0.0085	-12634.11
0.9909,0.0091	-12648.30
0.9948,0.0052	-12639.75
0.9911,0.0089	-12653.04
0.9911,0.0089	-12629.45
0.9969,0.0031	-12625.04
0.9925,0.0075	-12634.00
0.9903,0.0097	-12639.02
0.9944,0.0056	-12634.28
0.9914,0.0086	-12638.87
0.9889,0.0111	-12643.88
0.9968,0.0032	-12624.91
0.9944,0.0056	-12634.31
0.9925,0.0075	-12648.66
0.9950,0.0050	-12639.89
0.9928,0.0072	-12634.00
0.9870,0.0130	-12666.15
0.9968,0.0032	-12624.87
0.9953,0.0047	-12629.41
0.9935,0.0065	-12639.08
0.9944,0.0056	-12629.11
0.9940,0.0060	-12629.05
0.9851,0.0149	-12632.77
0.9971,0.0029	-12636.91
0.9959,0.0041	-12624.30
0.9938,0.0062	-12629.04
0.9942,0.0058	-12629.07
0.9937,0.0063	-12634.10
0.9843,0.0157	-12666.46
0.9975,0.0025	-12625.72
0.9958,0.0042	-12624.24
0.9931,0.0069	-12638.98
0.9939,0.0061	-12629.04
0.9947,0.0053	-12629.20
0.9829,0.0171	-12678.99
0.9975,0.0025	-12631.72
0.9951,0.0049	-12650.55
0.9932,0.0068	-12634.02
0.9947,0.0053	-12644.92
0.9911,0.0089	-12653.03
0.9835,0.0165	-12650.32
0.9972,0.0028	-12631.26
0.9944,0.0056	-12623.93
0.9945,0.0055	-12649.91
0.9948,0.0052	-12644.96
0.9909,0.0091	-12643.61
0.9834,0.0166	-12662.61
0.9978,0.0022	-12626.38
0.9951,0.0049	-12645.28
0.9951,0.0049	-12634.65
0.9953,0.0047	-12640.09
0.9901,0.0099	-12643.67
0.9855,0.0145	-12662.04
0.9976,0.0024	-12644.01
0.9938,0.0062	-12644.29
0.9944,0.0056	-12644.63
0.9952,0.0048	-12624.04
0.9897,0.0103	-12643.73
0.9854,0.0146	-12657.84
0.9973,0.0027	-12625.53
0.9935,0.0065	-12634.06
0.9946,0.0054	-12644.81
0.9953,0.0047	-12640.10
0.9876,0.0124	-12661.79
0.9890,0.0110	-12643.86
0.9971,0.0029	-12625.20
0.9935,0.0065	-12654.17
0.9945,0.0055	-12644.70
0.9957,0.0043	-12629.64
0.9881,0.0119	-12644.11
0.9899,0.0101	-12652.86
0.9964,0.0036	-12624.56
0.9897,0.0103	-12630.05
0.9949,0.0051	-12634.51
0.9953,0.0047	-12629.42
0.9894,0.0106	-12634.72
0.9901,0.0099	-12662.09
0.9948,0.0052	-12634.48
0.9892,0.0108	-12648.33
0.9931,0.0069	-12638.99
