#isoforms=['ENSG00000101294.SE.1.A.up_ENSG00000101294.SE.1.A.SE1_ENSG00000101294.SE.1.A.dn','ENSG00000101294.SE.1.B.up_ENSG00000101294.SE.1.B.dn']	exon_lens=('ENSG00000101294.SE.1.A.up',99),('ENSG00000101294.SE.1.A.SE1',376),('ENSG00000101294.SE.1.A.dn',89),('ENSG00000101294.SE.1.B.up',99),('ENSG00000101294.SE.1.B.dn',89)	iters=5000	burn_in=500	lag=10	percent_accept=84.17	proposal_type=drift	counts=(0,0):431,(1,0):134,(1,1):267	assigned_counts=0:190,1:211	chrom=chr20	strand=+	mRNA_starts=31527484,31527484	mRNA_ends=31545035,31545035
sampled_psi	log_score
0.2265,0.7735	-2530.83
0.2011,0.7989	-2530.59
0.1874,0.8126	-2518.30
0.1565,0.8435	-2498.28
0.1927,0.8073	-2531.05
0.1871,0.8129	-2515.37
0.2078,0.7922	-2519.72
0.1733,0.8267	-2517.73
0.1746,0.8254	-2516.05
0.1693,0.8307	-2507.03
0.1909,0.8091	-2518.19
0.1779,0.8221	-2505.08
0.1900,0.8100	-2512.41
0.1780,0.8220	-2524.97
0.1881,0.8119	-2515.34
0.1913,0.8087	-2539.80
0.1890,0.8110	-2532.81
0.1759,0.8241	-2505.13
0.1946,0.8054	-2523.82
0.1687,0.8313	-2507.07
0.1992,0.8008	-2523.71
0.1897,0.8103	-2516.77
0.2012,0.7988	-2523.69
0.1817,0.8183	-2524.60
0.1997,0.8003	-2516.76
0.2049,0.7951	-2511.49
0.1972,0.8028	-2512.52
0.1917,0.8083	-2510.98
0.2042,0.7958	-2534.57
0.1919,0.8081	-2531.11
0.2056,0.7944	-2503.43
0.1814,0.8186	-2518.60
0.1875,0.8125	-2516.83
0.1881,0.8119	-2521.19
0.2236,0.7764	-2523.22
0.2001,0.7999	-2525.09
0.2347,0.7653	-2518.36
0.1837,0.8163	-2518.47
0.1977,0.8023	-2536.34
0.2184,0.7816	-2525.41
0.2352,0.7648	-2533.76
0.1944,0.8056	-2509.61
0.2290,0.7710	-2526.11
0.2012,0.7988	-2520.94
0.2218,0.7782	-2519.32
0.2388,0.7612	-2535.17
0.2108,0.7892	-2515.89
0.2148,0.7852	-2526.55
0.1991,0.8009	-2544.59
0.2135,0.7865	-2539.55
0.2241,0.7759	-2540.65
0.2324,0.7676	-2532.38
0.2175,0.7825	-2520.24
0.2121,0.7879	-2530.41
0.1919,0.8081	-2531.11
0.1985,0.8015	-2516.74
0.2076,0.7924	-2522.39
0.2064,0.7936	-2521.02
0.1855,0.8145	-2533.17
0.1895,0.8105	-2508.05
0.1809,0.8191	-2515.62
0.2346,0.7654	-2538.45
0.2084,0.7916	-2522.41
0.2089,0.7911	-2507.79
0.1848,0.8152	-2513.95
0.2048,0.7952	-2538.62
0.2008,0.7992	-2512.65
0.1659,0.8341	-2497.61
0.1906,0.8094	-2542.77
0.2036,0.7964	-2516.87
0.1512,0.8488	-2504.05
0.2094,0.7906	-2522.44
0.2077,0.7923	-2537.12
0.1695,0.8305	-2522.91
0.2057,0.7943	-2526.41
0.2010,0.7990	-2515.42
0.2019,0.7981	-2530.56
0.1626,0.8374	-2504.34
0.2010,0.7990	-2526.45
0.1610,0.8390	-2501.19
0.2117,0.7883	-2515.95
0.2390,0.7610	-2531.72
0.1951,0.8049	-2515.30
0.1912,0.8088	-2509.53
0.1975,0.8025	-2529.35
0.1777,0.8223	-2508.15
0.2042,0.7958	-2518.25
0.2200,0.7800	-2530.56
0.2110,0.7890	-2521.18
0.1726,0.8274	-2505.26
0.1660,0.8340	-2508.90
0.2032,0.7968	-2530.52
0.2115,0.7885	-2522.52
0.2202,0.7798	-2520.45
0.2175,0.7825	-2529.21
0.1667,0.8333	-2502.40
0.1686,0.8314	-2519.84
0.1910,0.8090	-2529.74
0.2117,0.7883	-2525.15
0.2312,0.7688	-2541.92
0.1852,0.8148	-2510.98
0.1807,0.8193	-2518.65
0.1612,0.8388	-2496.23
0.2018,0.7982	-2515.44
0.2027,0.7973	-2503.15
0.2312,0.7688	-2535.92
0.1612,0.8388	-2511.07
0.1944,0.8056	-2515.29
0.1635,0.8365	-2510.79
0.1907,0.8093	-2518.19
0.1970,0.8030	-2513.92
0.2176,0.7824	-2524.09
0.2106,0.7894	-2521.16
0.2237,0.7763	-2533.19
0.1650,0.8350	-2513.87
0.2317,0.7683	-2541.93
0.2085,0.7915	-2521.08
0.2101,0.7899	-2513.20
0.1919,0.8081	-2508.11
0.1787,0.8213	-2512.69
0.1736,0.8264	-2519.26
0.2076,0.7924	-2529.09
0.2083,0.7917	-2511.73
0.2122,0.7878	-2515.99
0.1819,0.8181	-2523.08
0.1787,0.8213	-2515.75
0.1785,0.8215	-2509.65
0.2192,0.7808	-2519.10
0.1861,0.8139	-2512.44
0.2479,0.7521	-2530.39
0.2262,0.7738	-2534.51
0.1794,0.8206	-2503.54
0.1690,0.8310	-2495.90
0.2063,0.7937	-2514.28
0.2101,0.7899	-2515.84
0.2256,0.7744	-2524.62
0.2006,0.7994	-2516.78
0.1860,0.8140	-2515.40
0.1726,0.8274	-2509.96
0.2042,0.7958	-2501.93
0.2082,0.7918	-2513.06
0.2315,0.7685	-2538.33
0.2115,0.7885	-2529.10
0.1999,0.8001	-2527.86
0.1945,0.8055	-2506.77
0.2082,0.7918	-2526.42
0.1931,0.8069	-2519.58
0.2124,0.7876	-2533.04
0.2151,0.7849	-2521.38
0.2314,0.7686	-2551.53
0.2156,0.7844	-2531.74
0.2298,0.7702	-2538.28
0.2097,0.7903	-2518.48
0.1936,0.8064	-2516.72
0.2322,0.7678	-2518.02
0.2403,0.7597	-2544.49
0.2119,0.7881	-2527.79
0.2251,0.7749	-2540.65
0.2221,0.7779	-2518.09
0.2149,0.7851	-2527.85
0.2254,0.7746	-2538.18
0.2372,0.7628	-2533.90
0.1968,0.8032	-2512.51
0.1979,0.8021	-2526.53
0.2195,0.7805	-2534.35
0.1900,0.8100	-2515.31
0.1962,0.8038	-2523.77
0.2406,0.7594	-2544.51
0.2167,0.7833	-2518.91
0.2510,0.7490	-2551.56
0.2410,0.7590	-2533.04
0.2077,0.7923	-2515.70
0.1982,0.8018	-2530.71
0.2512,0.7488	-2534.09
0.1886,0.8114	-2521.17
0.2626,0.7374	-2544.86
0.2266,0.7734	-2539.43
0.2519,0.7481	-2538.52
0.2163,0.7837	-2512.44
0.2124,0.7876	-2521.24
0.1855,0.8145	-2510.98
0.2431,0.7569	-2535.51
0.2379,0.7621	-2536.28
0.1987,0.8013	-2548.82
0.2096,0.7904	-2511.83
0.1837,0.8163	-2512.50
0.1741,0.8259	-2527.00
0.2121,0.7879	-2539.60
0.2662,0.7338	-2547.25
0.2254,0.7746	-2515.96
0.1845,0.8155	-2518.42
0.2050,0.7950	-2512.86
0.1747,0.8253	-2508.28
0.2154,0.7846	-2526.57
0.2648,0.7352	-2552.23
0.2138,0.7862	-2531.73
0.2011,0.7989	-2525.07
0.2208,0.7792	-2534.37
0.2015,0.7985	-2534.71
0.2537,0.7463	-2533.31
0.2571,0.7429	-2546.49
0.2074,0.7926	-2521.05
0.1927,0.8073	-2515.29
0.2128,0.7872	-2527.80
0.2192,0.7808	-2526.72
0.2420,0.7580	-2538.84
0.2354,0.7646	-2542.02
0.2037,0.7963	-2510.06
0.1651,0.8349	-2497.64
0.1737,0.8263	-2531.73
0.2158,0.7842	-2521.42
0.2317,0.7683	-2531.15
0.2436,0.7564	-2543.48
0.1914,0.8086	-2510.97
0.1992,0.8008	-2516.76
0.1640,0.8360	-2515.62
0.1982,0.8018	-2508.35
0.2118,0.7882	-2533.04
0.2110,0.7890	-2513.26
0.2090,0.7910	-2534.41
0.2053,0.7947	-2506.10
0.1725,0.8275	-2502.13
0.1879,0.8121	-2529.98
0.1853,0.8147	-2508.02
0.2013,0.7987	-2522.31
0.2002,0.7998	-2515.39
0.1948,0.8052	-2533.75
0.1718,0.8282	-2502.15
0.2190,0.7810	-2538.16
0.1801,0.8199	-2497.47
0.1857,0.8143	-2521.32
0.2052,0.7948	-2520.99
0.1969,0.8031	-2530.78
0.1802,0.8198	-2526.26
0.2251,0.7749	-2543.12
0.1801,0.8199	-2523.23
0.1935,0.8065	-2518.15
0.2168,0.7832	-2520.20
0.2224,0.7776	-2538.15
0.2078,0.7922	-2519.72
0.1986,0.8014	-2529.30
0.1786,0.8214	-2511.17
0.2041,0.7959	-2508.73
0.2226,0.7774	-2535.65
0.2195,0.7805	-2540.69
0.1992,0.8008	-2523.71
0.2308,0.7692	-2528.68
0.1806,0.8194	-2508.07
0.1993,0.8007	-2533.44
0.2187,0.7813	-2525.43
0.2172,0.7828	-2522.79
0.2253,0.7747	-2550.53
0.2175,0.7825	-2525.37
0.1895,0.8105	-2513.87
0.2047,0.7953	-2518.27
0.2175,0.7825	-2533.05
0.2192,0.7808	-2520.37
0.2186,0.7814	-2529.24
0.2227,0.7773	-2534.40
0.2114,0.7886	-2533.04
0.1966,0.8034	-2527.98
0.2069,0.7931	-2514.31
0.2271,0.7729	-2548.01
0.2351,0.7649	-2545.55
0.1904,0.8096	-2522.54
0.2114,0.7886	-2525.15
0.1883,0.8117	-2513.88
0.2029,0.7971	-2507.27
0.2407,0.7593	-2534.17
0.1987,0.8013	-2516.75
0.2082,0.7918	-2517.06
0.2192,0.7808	-2533.07
0.2191,0.7809	-2526.72
0.2059,0.7941	-2521.01
0.2472,0.7528	-2525.86
0.2110,0.7890	-2543.60
0.2168,0.7832	-2524.05
0.1972,0.8028	-2534.98
0.2397,0.7603	-2531.78
0.2149,0.7851	-2530.44
0.2147,0.7853	-2522.65
0.1989,0.8011	-2530.68
0.2162,0.7838	-2524.02
0.1811,0.8189	-2532.20
0.2255,0.7745	-2525.84
0.2293,0.7707	-2530.99
0.2158,0.7842	-2542.07
0.2091,0.7909	-2526.43
0.2116,0.7884	-2527.78
0.2108,0.7892	-2525.13
0.2128,0.7872	-2522.57
0.2478,0.7522	-2539.26
0.2033,0.7967	-2526.42
0.2244,0.7756	-2533.21
0.2119,0.7881	-2533.04
0.2405,0.7595	-2539.90
0.2208,0.7792	-2524.28
0.2223,0.7777	-2529.39
0.1906,0.8094	-2505.18
0.1949,0.8051	-2511.04
0.1961,0.8039	-2519.54
0.2329,0.7671	-2543.15
0.2097,0.7903	-2527.76
0.2224,0.7776	-2518.12
0.1984,0.8016	-2518.14
0.1808,0.8192	-2514.11
0.2009,0.7991	-2518.17
0.2130,0.7870	-2518.66
0.2069,0.7931	-2551.94
0.1898,0.8102	-2521.12
0.2486,0.7514	-2536.01
0.2065,0.7935	-2529.10
0.2040,0.7960	-2525.05
0.2236,0.7764	-2524.47
0.2281,0.7719	-2528.48
0.1897,0.8103	-2502.25
0.2533,0.7467	-2539.74
0.1944,0.8056	-2516.72
0.2127,0.7873	-2502.93
0.2221,0.7779	-2541.91
0.2130,0.7870	-2522.58
0.1775,0.8225	-2506.62
0.2138,0.7862	-2523.92
0.1860,0.8140	-2503.59
0.1993,0.8007	-2507.02
0.1905,0.8095	-2529.77
0.1841,0.8159	-2516.96
0.2100,0.7900	-2537.04
0.1937,0.8063	-2529.55
0.1766,0.8234	-2503.57
0.2084,0.7916	-2511.74
0.2022,0.7978	-2515.46
0.2306,0.7694	-2538.30
0.2155,0.7845	-2539.49
0.1998,0.8002	-2515.38
0.2118,0.7882	-2513.33
0.2048,0.7952	-2529.12
0.2215,0.7785	-2534.38
0.2293,0.7707	-2524.93
0.2185,0.7815	-2517.77
0.1942,0.8058	-2516.72
0.2038,0.7962	-2522.33
0.2090,0.7910	-2515.78
0.2071,0.7929	-2526.41
0.2103,0.7897	-2511.89
0.1974,0.8026	-2532.16
0.1929,0.8071	-2518.15
0.2143,0.7857	-2536.93
0.2125,0.7875	-2519.94
0.1805,0.8195	-2520.18
0.1868,0.8132	-2521.26
0.2169,0.7831	-2539.46
0.1977,0.8023	-2499.92
0.1729,0.8271	-2492.72
0.1843,0.8157	-2516.95
0.1607,0.8393	-2484.69
0.1874,0.8126	-2510.96
0.2147,0.7853	-2530.44
0.1960,0.8040	-2506.84
0.1996,0.8004	-2515.38
0.1895,0.8105	-2496.43
0.2029,0.7971	-2527.79
0.1610,0.8390	-2514.40
0.2056,0.7944	-2522.35
0.2175,0.7825	-2522.81
0.1962,0.8038	-2498.38
0.1910,0.8090	-2509.53
0.2041,0.7959	-2522.33
0.2232,0.7768	-2531.92
0.1938,0.8062	-2528.12
0.2413,0.7587	-2535.37
0.1914,0.8086	-2526.82
0.1887,0.8113	-2513.87
0.1861,0.8139	-2533.10
0.2175,0.7825	-2525.37
0.2065,0.7935	-2519.68
0.2119,0.7881	-2536.98
0.1818,0.8182	-2505.04
0.1918,0.8082	-2518.17
0.1846,0.8154	-2510.99
0.1945,0.8055	-2512.45
0.1989,0.8011	-2519.54
0.2032,0.7968	-2533.25
0.2205,0.7795	-2529.31
0.1955,0.8045	-2532.28
0.1800,0.8200	-2514.15
0.1929,0.8071	-2516.72
0.2022,0.7978	-2533.30
0.2191,0.7809	-2522.91
0.2323,0.7677	-2534.77
0.2059,0.7941	-2508.86
0.1487,0.8513	-2509.69
0.2221,0.7779	-2543.16
0.2257,0.7743	-2523.39
0.1758,0.8242	-2495.87
0.2434,0.7566	-2538.94
0.1797,0.8203	-2530.87
0.1612,0.8388	-2502.83
0.2332,0.7668	-2534.82
0.2201,0.7799	-2524.24
0.1928,0.8072	-2512.43
0.2683,0.7317	-2547.46
0.1940,0.8060	-2525.26
0.1680,0.8320	-2505.53
0.2283,0.7717	-2521.18
0.2349,0.7651	-2520.74
0.2226,0.7774	-2524.39
0.2423,0.7577	-2537.73
0.1870,0.8130	-2521.25
0.1884,0.8116	-2524.10
0.2039,0.7961	-2514.15
0.2337,0.7663	-2533.66
0.2290,0.7710	-2534.61
0.2096,0.7904	-2535.72
0.2033,0.7967	-2519.59
0.2068,0.7932	-2514.31
0.1988,0.8012	-2522.32
0.2276,0.7724	-2521.11
0.2023,0.7977	-2527.80
0.2197,0.7803	-2529.28
0.2257,0.7743	-2529.56
0.2082,0.7918	-2530.42
0.2058,0.7942	-2518.30
0.2347,0.7653	-2531.36
0.2040,0.7960	-2516.88
0.2073,0.7927	-2522.39
0.2034,0.7966	-2523.69
0.2084,0.7916	-2538.43
0.2292,0.7708	-2528.56
0.1951,0.8049	-2522.39
0.2299,0.7701	-2528.61
0.1961,0.8039	-2528.01
0.2328,0.7672	-2521.68
0.1921,0.8079	-2519.60
0.2397,0.7603	-2523.70
0.1712,0.8288	-2511.63
0.1995,0.8005	-2513.98
0.1734,0.8266	-2497.41
0.2150,0.7850	-2516.20
0.2083,0.7917	-2530.42
0.2183,0.7817	-2526.68
0.1896,0.8104	-2499.34
0.1751,0.8249	-2514.45
0.1952,0.8048	-2522.38
0.2169,0.7831	-2536.89
0.1879,0.8121	-2538.77
0.2217,0.7783	-2528.10
0.1603,0.8397	-2527.76
0.2139,0.7861	-2544.74
0.1843,0.8157	-2522.89
0.2076,0.7924	-2526.41
0.1876,0.8124	-2509.49
0.1725,0.8275	-2525.64
0.1783,0.8217	-2520.35
0.2331,0.7669	-2533.62
0.1744,0.8256	-2505.18
0.2422,0.7578	-2529.74
0.2243,0.7757	-2517.08
0.1704,0.8296	-2483.21
0.1597,0.8403	-2511.28
0.2052,0.7948	-2535.89
0.1880,0.8120	-2513.88
0.2351,0.7649	-2532.57
0.2518,0.7482	-2545.05
0.1936,0.8064	-2533.84
0.1845,0.8155	-2527.34
0.2057,0.7943	-2533.16
0.1837,0.8163	-2518.46
0.2254,0.7746	-2538.18
0.2293,0.7707	-2533.41
0.1980,0.8020	-2509.74
0.1829,0.8171	-2499.05
0.1910,0.8090	-2519.63
0.1780,0.8220	-2506.61
0.2128,0.7872	-2527.80
0.2062,0.7938	-2521.02
0.2091,0.7909	-2518.44
0.1693,0.8307	-2507.03
0.2041,0.7959	-2527.78
0.1767,0.8233	-2503.57
0.2209,0.7791	-2533.11
0.1983,0.8017	-2506.96
0.1872,0.8128	-2522.71
0.1864,0.8136	-2515.39
0.2166,0.7834	-2522.76
0.1914,0.8086	-2535.47
0.2004,0.7996	-2523.70
0.2119,0.7881	-2521.22
0.1734,0.8266	-2519.28
0.1735,0.8265	-2509.90
0.2348,0.7652	-2529.00
0.1691,0.8309	-2515.01
0.2120,0.7880	-2526.47
0.2172,0.7828	-2522.79
0.2032,0.7968	-2520.96
0.2042,0.7958	-2520.97
0.2301,0.7699	-2515.33
0.1726,0.8274	-2498.99
0.2113,0.7887	-2519.87
0.2155,0.7845	-2523.99
0.1998,0.8002	-2540.35
0.1882,0.8118	-2515.34
0.2185,0.7815	-2536.89
0.1996,0.8004	-2500.10
0.2076,0.7924	-2529.09
0.2162,0.7838	-2517.58
0.2327,0.7673	-2543.14
0.1729,0.8271	-2513.07
0.1770,0.8230	-2518.94
0.1940,0.8060	-2518.14
0.2096,0.7904	-2527.76
0.2153,0.7847	-2523.98
0.2099,0.7901	-2534.39
0.1703,0.8297	-2503.79
0.1607,0.8393	-2506.18
0.2187,0.7813	-2530.52
0.2211,0.7789	-2519.26
0.2194,0.7806	-2529.27
0.1868,0.8132	-2521.26
0.2044,0.7956	-2519.62
0.1757,0.8243	-2508.23
0.2337,0.7663	-2527.72
0.2059,0.7941	-2512.91
0.2126,0.7874	-2534.34
0.1967,0.8033	-2533.61
0.2089,0.7911	-2510.44
0.2010,0.7990	-2518.17
0.2441,0.7559	-2540.11
0.1890,0.8110	-2521.15
0.2315,0.7685	-2540.73
0.2202,0.7798	-2524.24
0.2059,0.7941	-2511.56
0.2116,0.7884	-2523.84
0.2040,0.7960	-2538.67
0.1865,0.8135	-2509.49
0.2014,0.7986	-2518.18
0.2347,0.7653	-2524.27
0.2130,0.7870	-2522.58
0.2351,0.7649	-2538.47
0.2098,0.7902	-2517.15
0.1829,0.8171	-2536.47
0.2132,0.7868	-2517.36
0.2092,0.7908	-2522.44
0.2219,0.7781	-2525.60
0.2217,0.7783	-2535.64
0.2068,0.7932	-2522.38
0.1800,0.8200	-2520.21
0.1801,0.8199	-2509.60
0.2145,0.7855	-2531.73
0.2338,0.7662	-2527.73
0.1873,0.8127	-2515.36
0.2088,0.7912	-2523.76
0.2381,0.7619	-2544.43
0.2139,0.7861	-2518.71
0.2073,0.7927	-2529.09
0.2281,0.7719	-2524.82
0.1859,0.8141	-2519.83
0.1821,0.8179	-2520.06
0.2231,0.7769	-2528.17
0.2093,0.7907	-2521.11
0.2229,0.7771	-2541.90
0.2107,0.7893	-2521.17
0.1801,0.8199	-2521.72
0.1878,0.8122	-2532.93
0.2532,0.7468	-2540.81
0.2084,0.7916	-2537.09
0.2308,0.7692	-2538.31
0.1923,0.8077	-2515.29
0.2095,0.7905	-2518.46
0.1850,0.8150	-2519.88
0.2298,0.7702	-2535.86
0.2265,0.7735	-2546.80
0.2180,0.7820	-2522.84
0.1679,0.8321	-2507.13
0.2149,0.7851	-2531.74
0.1949,0.8051	-2512.46
0.2273,0.7727	-2533.32
0.2497,0.7503	-2525.11
0.2195,0.7805	-2534.35
0.1687,0.8313	-2508.67
0.2071,0.7929	-2531.78
0.2273,0.7727	-2534.54
0.1835,0.8165	-2514.00
0.2023,0.7977	-2515.46
0.2378,0.7622	-2530.44
0.1746,0.8254	-2520.71
0.2405,0.7595	-2529.56
0.2543,0.7457	-2554.90
0.2120,0.7880	-2527.79
0.2142,0.7858	-2518.74
0.2350,0.7650	-2525.48
0.1735,0.8265	-2498.97
0.2529,0.7471	-2535.37
0.2090,0.7910	-2530.42
0.2046,0.7954	-2503.33
0.2323,0.7677	-2532.38
0.2304,0.7696	-2540.70
0.1723,0.8277	-2511.55
0.2508,0.7492	-2546.08
0.1987,0.8013	-2530.69
0.2116,0.7884	-2512.00
0.2205,0.7795	-2530.57
0.2297,0.7703	-2543.11
0.2033,0.7967	-2529.15
0.2365,0.7635	-2532.67
0.2035,0.7965	-2527.78
0.2099,0.7901	-2529.09
0.1990,0.8010	-2530.68
0.2331,0.7669	-2543.15
0.2288,0.7712	-2524.88
0.2268,0.7732	-2522.26
0.1841,0.8159	-2509.51
0.1847,0.8153	-2508.02
0.1948,0.8052	-2519.55
0.1947,0.8053	-2529.49
0.1968,0.8032	-2504.07
0.2089,0.7911	-2517.10
0.1966,0.8034	-2520.95
0.2072,0.7928	-2517.02
0.1792,0.8208	-2524.84
0.2066,0.7934	-2534.48
0.1843,0.8157	-2502.07
0.2135,0.7865	-2523.90
0.2072,0.7928	-2523.73
0.2176,0.7824	-2525.37
0.2059,0.7941	-2515.61
0.1979,0.8021	-2522.33
0.1911,0.8089	-2516.74
0.1756,0.8244	-2517.51
0.2031,0.7969	-2519.59
0.2200,0.7800	-2531.82
0.2024,0.7976	-2526.43
0.2189,0.7811	-2530.52
0.2106,0.7894	-2534.38
0.1675,0.8325	-2500.75
0.2043,0.7957	-2507.38
0.2144,0.7856	-2518.74
0.2061,0.7939	-2526.41
0.1995,0.8005	-2515.37
0.2389,0.7611	-2542.14
0.2022,0.7978	-2511.34
0.1923,0.8077	-2531.08
0.1829,0.8171	-2502.04
0.2121,0.7879	-2540.91
0.1938,0.8062	-2518.14
0.2429,0.7571	-2527.53
0.2054,0.7946	-2548.05
0.1990,0.8010	-2523.71
0.1729,0.8271	-2511.51
0.2037,0.7963	-2527.78
0.1852,0.8148	-2521.35
0.2368,0.7632	-2529.18
0.1818,0.8182	-2502.03
0.1820,0.8180	-2523.07
0.1784,0.8216	-2527.98
0.2176,0.7824	-2529.21
0.1908,0.8092	-2536.98
0.2276,0.7724	-2539.44
0.2028,0.7972	-2514.11
0.1961,0.8039	-2519.54
0.1786,0.8214	-2515.75
0.2221,0.7779	-2533.14
0.1708,0.8292	-2511.67
0.2146,0.7854	-2523.95
0.1915,0.8085	-2551.30
0.1955,0.8045	-2526.62
0.1920,0.8080	-2515.29
0.2222,0.7778	-2519.36
0.1617,0.8383	-2497.84
0.2086,0.7914	-2522.42
0.1897,0.8103	-2515.32
0.2171,0.7829	-2520.22
0.2015,0.7985	-2501.66
0.1883,0.8117	-2503.65
0.1647,0.8353	-2510.66
0.2177,0.7823	-2534.33
0.1640,0.8360	-2507.48
0.2004,0.7996	-2518.16
0.2119,0.7881	-2521.22
0.1751,0.8249	-2522.21
0.2089,0.7911	-2519.77
0.2278,0.7722	-2528.46
0.1809,0.8191	-2517.13
0.1741,0.8259	-2519.21
0.2121,0.7879	-2517.29
0.1643,0.8357	-2505.82
0.1980,0.8020	-2519.54
0.2288,0.7712	-2520.02
0.1999,0.8001	-2512.61
0.1880,0.8120	-2522.66
0.2031,0.7969	-2527.79
0.1650,0.8350	-2500.90
0.1928,0.8072	-2499.54
0.2313,0.7687	-2534.72
0.1880,0.8120	-2525.59
0.1883,0.8117	-2513.88
0.1967,0.8033	-2526.57
0.1863,0.8137	-2513.92
0.2191,0.7809	-2552.14
0.1842,0.8158	-2525.88
0.2083,0.7917	-2522.41
0.1923,0.8077	-2519.60
0.1978,0.8022	-2520.94
0.1941,0.8059	-2536.64
0.2134,0.7866	-2542.16
0.1906,0.8094	-2529.76
0.2418,0.7582	-2547.97
0.2047,0.7953	-2529.12
0.1690,0.8310	-2522.97
0.1741,0.8259	-2503.64
0.2306,0.7694	-2528.66
0.2365,0.7635	-2542.05
0.1849,0.8151	-2510.99
0.1958,0.8042	-2525.19
0.1472,0.8528	-2513.51
0.1483,0.8517	-2497.53
0.1945,0.8055	-2538.03
0.2245,0.7755	-2524.54
0.1890,0.8110	-2532.80
0.1712,0.8288	-2506.91
0.1736,0.8264	-2503.65
0.1656,0.8344	-2507.33
0.1741,0.8259	-2519.21
0.2292,0.7708	-2537.04
0.1963,0.8037	-2533.63
0.1900,0.8100	-2505.16
0.1863,0.8137	-2497.70
0.1697,0.8303	-2511.77
0.1780,0.8220	-2508.14
0.1962,0.8038	-2525.18
0.2114,0.7886	-2533.04
0.1704,0.8296	-2516.45
0.1971,0.8029	-2525.15
0.1804,0.8196	-2512.61
0.1765,0.8235	-2514.35
0.2040,0.7960	-2510.08
0.2145,0.7855	-2529.14
0.1660,0.8340	-2516.97
0.2496,0.7504	-2537.21
0.1969,0.8031	-2506.89
0.2002,0.7998	-2516.78
0.2039,0.7961	-2544.12
0.2077,0.7923	-2537.12
0.1838,0.8162	-2519.95
0.2594,0.7406	-2555.05
0.1995,0.8005	-2529.26
0.2074,0.7926	-2537.14
0.1771,0.8229	-2520.46
0.1905,0.8095	-2528.33
0.1587,0.8413	-2513.08
0.2528,0.7472	-2548.37
0.2261,0.7739	-2545.57
0.1930,0.8070	-2500.99
0.1594,0.8406	-2498.01
0.1793,0.8207	-2518.75
0.2100,0.7900	-2506.56
0.2141,0.7859	-2523.93
0.2464,0.7536	-2533.56
0.1825,0.8175	-2511.04
0.1634,0.8366	-2494.47
0.2145,0.7855	-2534.33
0.1860,0.8140	-2518.35
0.2128,0.7872	-2519.95
0.2362,0.7638	-2550.26
0.2218,0.7782	-2514.30
0.1833,0.8167	-2531.93
0.1953,0.8047	-2512.47
0.1827,0.8173	-2524.51
0.1902,0.8098	-2526.90
0.2125,0.7875	-2535.66
0.1971,0.8029	-2501.28
0.1973,0.8027	-2509.71
0.2198,0.7802	-2521.68
0.1769,0.8231	-2508.18
0.1956,0.8044	-2525.20
0.2130,0.7870	-2519.96
0.2008,0.7992	-2518.17
0.2018,0.7982	-2497.57
0.2099,0.7901	-2527.76
0.2194,0.7806	-2524.19
0.1976,0.8024	-2508.32
0.2427,0.7573	-2552.55
0.1965,0.8035	-2533.62
0.2069,0.7931	-2518.35
0.1902,0.8098	-2521.10
0.2013,0.7987	-2534.72
0.2133,0.7867	-2522.59
0.2063,0.7937	-2530.45
0.2103,0.7897	-2523.80
0.1926,0.8074	-2516.72
0.2192,0.7808	-2529.26
0.2087,0.7913	-2507.77
0.2124,0.7876	-2522.55
0.1722,0.8278	-2511.56
0.2092,0.7908	-2527.76
0.2090,0.7910	-2522.43
0.2410,0.7590	-2544.52
0.2054,0.7946	-2534.53
0.2202,0.7798	-2539.41
0.1891,0.8109	-2529.88
0.2133,0.7867	-2516.06
0.2008,0.7992	-2525.08
0.2557,0.7443	-2543.18
0.2261,0.7739	-2538.19
0.1734,0.8266	-2520.84
0.1823,0.8177	-2512.54
0.2178,0.7822	-2510.04
0.2087,0.7913	-2527.75
0.2390,0.7610	-2534.03
0.2235,0.7765	-2530.69
0.2023,0.7977	-2512.71
0.1885,0.8115	-2508.04
0.2164,0.7836	-2530.46
0.1927,0.8073	-2516.72
0.2293,0.7707	-2540.69
0.2052,0.7948	-2534.53
0.2508,0.7492	-2536.24
0.1900,0.8100	-2512.41
0.2078,0.7922	-2514.37
0.1844,0.8156	-2521.40
0.2224,0.7776	-2534.40
0.1927,0.8073	-2525.32
0.1991,0.8009	-2540.42
0.1912,0.8088	-2529.72
0.1962,0.8038	-2505.44
0.1870,0.8130	-2512.43
0.2164,0.7836	-2525.32
0.1956,0.8044	-2512.47
0.1809,0.8191	-2512.59
0.1845,0.8155	-2518.42
0.1931,0.8069	-2506.71
0.1822,0.8178	-2520.05
0.2023,0.7977	-2525.06
0.2187,0.7813	-2526.70
0.1728,0.8272	-2511.52
0.1889,0.8111	-2509.50
0.1862,0.8138	-2512.44
0.1615,0.8385	-2509.39
0.2070,0.7930	-2522.38
0.2313,0.7687	-2527.52
0.1854,0.8146	-2533.18
0.2009,0.7991	-2511.27
0.1915,0.8085	-2512.42
0.2001,0.7999	-2519.54
0.2019,0.7981	-2515.44
0.1923,0.8077	-2533.95
0.1804,0.8196	-2514.13
0.2150,0.7850	-2535.62
0.2041,0.7959	-2514.16
0.2196,0.7804	-2534.35
0.1836,0.8164	-2518.47
0.1898,0.8102	-2494.99
0.1875,0.8125	-2500.69
0.2270,0.7730	-2529.63
0.1734,0.8266	-2506.79
0.2092,0.7908	-2521.11
0.1902,0.8098	-2512.41
0.2119,0.7881	-2538.29
0.2064,0.7936	-2530.45
0.1967,0.8033	-2525.17
0.1957,0.8043	-2529.44
0.2013,0.7987	-2518.18
0.1573,0.8427	-2494.84
0.1843,0.8157	-2508.02
0.2034,0.7966	-2514.13
0.1893,0.8107	-2528.42
0.2199,0.7801	-2515.36
0.1878,0.8122	-2506.56
0.1849,0.8151	-2500.60
0.1743,0.8257	-2519.19
0.2274,0.7726	-2532.10
0.2082,0.7918	-2531.76
0.2262,0.7738	-2528.35
0.1828,0.8172	-2496.05
0.1741,0.8259	-2511.42
0.1812,0.8188	-2524.65
0.1775,0.8225	-2525.03
0.2111,0.7889	-2529.09
0.1909,0.8091	-2513.86
0.1770,0.8230	-2498.96
0.1728,0.8272	-2513.08
0.1859,0.8141	-2525.74
0.2062,0.7938	-2519.67
0.2236,0.7764	-2539.40
0.2160,0.7840	-2521.43
0.1958,0.8042	-2501.18
0.1771,0.8229	-2529.67
0.1987,0.8013	-2506.99
0.1991,0.8009	-2529.28
0.2209,0.7791	-2525.55
0.2225,0.7775	-2525.64
0.1833,0.8167	-2518.49
0.1771,0.8229	-2505.10
0.2202,0.7798	-2526.77
0.1666,0.8334	-2510.46
0.2112,0.7888	-2517.23
0.2400,0.7600	-2545.64
0.2150,0.7850	-2516.20
0.1873,0.8127	-2522.70
0.1902,0.8098	-2521.10
0.1905,0.8095	-2499.39
0.2511,0.7489	-2532.98
0.2558,0.7442	-2545.33
0.2044,0.7956	-2518.26
0.1819,0.8181	-2506.54
0.1874,0.8126	-2516.83
0.2074,0.7926	-2523.73
0.2553,0.7447	-2542.08
0.2865,0.7135	-2555.11
0.2121,0.7879	-2519.92
0.1899,0.8101	-2500.80
0.1996,0.8004	-2515.38
0.1730,0.8270	-2503.67
0.2309,0.7691	-2529.89
0.2432,0.7568	-2543.47
0.2151,0.7849	-2535.62
0.1957,0.8043	-2504.00
0.2204,0.7796	-2548.25
0.1814,0.8186	-2494.49
0.2501,0.7499	-2546.05
0.2253,0.7747	-2514.71
0.2246,0.7754	-2528.26
0.1791,0.8209	-2508.11
0.1965,0.8035	-2506.86
0.2009,0.7991	-2512.65
0.2127,0.7873	-2523.87
0.1924,0.8076	-2526.77
0.2188,0.7812	-2527.97
0.1805,0.8195	-2511.10
0.1823,0.8177	-2520.04
0.1922,0.8078	-2518.16
0.2262,0.7738	-2522.21
0.1904,0.8096	-2522.54
0.2159,0.7841	-2526.59
0.1817,0.8183	-2533.63
0.1863,0.8137	-2509.49
0.2100,0.7900	-2533.06
0.2127,0.7873	-2535.65
0.2050,0.7950	-2541.32
0.2214,0.7786	-2519.28
0.1877,0.8123	-2513.89
0.1805,0.8195	-2523.20
0.2107,0.7893	-2519.84
0.1870,0.8130	-2506.55
0.1913,0.8087	-2503.77
0.1794,0.8206	-2515.70
0.1699,0.8301	-2505.40
0.2054,0.7946	-2522.35
0.2144,0.7856	-2540.82
0.1873,0.8127	-2502.15
0.2310,0.7690	-2540.72
0.2037,0.7963	-2533.23
0.1763,0.8237	-2506.66
0.1906,0.8094	-2528.32
0.2031,0.7969	-2530.52
0.2123,0.7877	-2519.93
0.2427,0.7573	-2534.34
0.1899,0.8101	-2529.82
0.1768,0.8232	-2502.03
0.1880,0.8120	-2519.74
0.1874,0.8126	-2499.23
0.1964,0.8036	-2532.22
0.2597,0.7403	-2549.83
0.2034,0.7966	-2518.23
0.1664,0.8336	-2504.03
0.1743,0.8257	-2514.52
0.2182,0.7818	-2526.68
0.2212,0.7788	-2516.75
0.2493,0.7507	-2549.31
0.1930,0.8070	-2519.58
0.1628,0.8372	-2538.71
0.1809,0.8191	-2508.06
0.2210,0.7790	-2557.05
0.2283,0.7717	-2528.49
0.2108,0.7892	-2535.69
0.1900,0.8100	-2516.76
0.1849,0.8151	-2512.47
0.1861,0.8139	-2518.35
0.2089,0.7911	-2527.76
0.2191,0.7809	-2535.61
0.2102,0.7898	-2515.85
0.1880,0.8120	-2513.88
0.1954,0.8046	-2525.21
0.2173,0.7827	-2526.64
0.2112,0.7888	-2539.64
0.1973,0.8027	-2512.52
0.1789,0.8211	-2526.40
0.1764,0.8236	-2514.37
0.2129,0.7871	-2519.96
0.2394,0.7606	-2534.06
0.1686,0.8314	-2494.31
0.1851,0.8149	-2510.98
0.1762,0.8238	-2526.72
0.1637,0.8363	-2525.44
0.2277,0.7723	-2522.34
0.2108,0.7892	-2522.49
0.1913,0.8087	-2510.97
0.1886,0.8114	-2508.04
0.1894,0.8106	-2518.23
0.2092,0.7908	-2522.44
0.2207,0.7793	-2530.58
0.1958,0.8042	-2502.59
0.2131,0.7869	-2523.89
0.2002,0.7998	-2526.47
0.2022,0.7978	-2522.32
0.1980,0.8020	-2519.54
0.2186,0.7814	-2533.06
0.1611,0.8389	-2525.94
0.2272,0.7728	-2535.76
0.1834,0.8166	-2534.91
0.1947,0.8053	-2518.14
0.2269,0.7731	-2532.08
0.2105,0.7895	-2530.41
0.1880,0.8120	-2527.05
0.2344,0.7656	-2536.07
0.1925,0.8075	-2521.03
0.1890,0.8110	-2502.22
0.2488,0.7512	-2533.82
0.2175,0.7825	-2539.45
0.1946,0.8054	-2518.14
0.2044,0.7956	-2510.11
0.1924,0.8076	-2539.67
0.1702,0.8298	-2506.96
0.2531,0.7469	-2548.39
0.2181,0.7819	-2520.29
0.2046,0.7954	-2519.62
0.2092,0.7908	-2531.75
0.1877,0.8123	-2524.14
0.1869,0.8131	-2521.26
0.2264,0.7736	-2539.43
0.2063,0.7937	-2538.53
0.2039,0.7961	-2530.50
0.2358,0.7642	-2531.44
0.1924,0.8076	-2528.20
0.2048,0.7952	-2508.78
0.1887,0.8113	-2502.21
0.2072,0.7928	-2518.36
0.1939,0.8061	-2513.87
0.2292,0.7708	-2528.56
0.1978,0.8022	-2506.93
0.1991,0.8009	-2516.75
0.2002,0.7998	-2518.16
0.2210,0.7790	-2534.37
0.2309,0.7691	-2538.31
0.2435,0.7565	-2538.94
0.2033,0.7967	-2533.25
0.2216,0.7784	-2536.89
0.2184,0.7816	-2516.49
0.2175,0.7825	-2533.05
0.2276,0.7724	-2529.66
0.2035,0.7965	-2515.50
0.1944,0.8056	-2516.72
0.2214,0.7786	-2557.01
0.1943,0.8057	-2505.34
0.2006,0.7994	-2522.31
0.2576,0.7424	-2539.11
0.1878,0.8122	-2515.35
0.2070,0.7930	-2526.41
0.2173,0.7827	-2536.89
0.1896,0.8104	-2512.41
0.2041,0.7959	-2511.45
0.2222,0.7778	-2528.13
0.2011,0.7989	-2516.80
0.1956,0.8044	-2503.99
0.1896,0.8104	-2526.94
0.2210,0.7790	-2524.29
0.1959,0.8041	-2522.37
0.2218,0.7782	-2514.30
0.2131,0.7869	-2536.95
0.1963,0.8037	-2529.41
0.1875,0.8125	-2527.09
0.2258,0.7742	-2535.72
0.2176,0.7824	-2527.93
0.2150,0.7850	-2529.15
0.2194,0.7806	-2531.81
0.2101,0.7899	-2517.17
0.2180,0.7820	-2533.05
0.2215,0.7785	-2516.78
0.2230,0.7770	-2528.17
0.2271,0.7729	-2529.64
0.1738,0.8262	-2523.91
0.1920,0.8080	-2521.04
0.2391,0.7609	-2529.41
0.2299,0.7701	-2526.19
0.2108,0.7892	-2521.17
0.2373,0.7627	-2536.24
0.2084,0.7916	-2515.74
0.2006,0.7994	-2505.72
0.2495,0.7505	-2528.40
0.2015,0.7985	-2514.05
0.2009,0.7991	-2529.22
0.2086,0.7914	-2521.09
0.2161,0.7839	-2520.15
0.2038,0.7962	-2510.06
0.2597,0.7403	-2542.50
0.2145,0.7855	-2513.56
0.1947,0.8053	-2515.30
0.1821,0.8179	-2526.07
0.2091,0.7909	-2538.40
0.1797,0.8203	-2538.45
0.2201,0.7799	-2564.72
0.2107,0.7893	-2518.53
0.2020,0.7980	-2525.06
0.1669,0.8331	-2504.00
0.2055,0.7945	-2511.53
0.1776,0.8224	-2515.82
0.1931,0.8069	-2526.73
0.2313,0.7687	-2528.71
0.1679,0.8321	-2497.53
0.1854,0.8146	-2522.82
0.2083,0.7917	-2535.76
0.1806,0.8194	-2526.21
0.2331,0.7669	-2543.15
0.2302,0.7698	-2528.63
0.1631,0.8369	-2487.94
0.1998,0.8002	-2508.44
0.2309,0.7691	-2541.92
0.1954,0.8046	-2533.70
0.2355,0.7645	-2538.49
0.2313,0.7687	-2527.51
0.1757,0.8243	-2512.87
0.1865,0.8135	-2521.28
0.2162,0.7838	-2522.74
0.1784,0.8216	-2505.07
0.2273,0.7727	-2521.08
0.2212,0.7788	-2523.04
0.1742,0.8258	-2505.19
0.2104,0.7896	-2539.67
0.2038,0.7962	-2523.69
0.1962,0.8038	-2518.13
0.2373,0.7627	-2532.74
0.2080,0.7920	-2530.43
0.1872,0.8128	-2522.71
0.2445,0.7555	-2548.04
0.2227,0.7773	-2526.90
0.1632,0.8368	-2528.80
0.2244,0.7756	-2540.65
0.1939,0.8061	-2508.17
0.1676,0.8324	-2524.79
0.2039,0.7961	-2534.59
0.2013,0.7987	-2525.07
0.1744,0.8256	-2526.94
0.2040,0.7960	-2516.88
0.1964,0.8036	-2511.09
0.1653,0.8347	-2504.11
0.2108,0.7892	-2522.49
0.1872,0.8128	-2505.09
0.1635,0.8365	-2510.79
0.2350,0.7650	-2527.84
0.1981,0.8019	-2516.74
0.1880,0.8120	-2527.05
0.1987,0.8013	-2525.11
0.2016,0.7984	-2518.19
0.1981,0.8019	-2532.12
0.2399,0.7601	-2532.95
0.1787,0.8213	-2509.64
0.2072,0.7928	-2503.60
0.2103,0.7897	-2537.03
0.2028,0.7972	-2525.06
0.1939,0.8061	-2528.11
0.2144,0.7856	-2527.84
0.1469,0.8531	-2501.26
0.2059,0.7941	-2531.81
0.2027,0.7973	-2516.84
0.2243,0.7757	-2540.65
0.2040,0.7960	-2526.41
0.1873,0.8127	-2510.96
0.1500,0.8500	-2499.04
0.1909,0.8091	-2515.30
0.1954,0.8046	-2528.04
0.1978,0.8022	-2527.94
0.2033,0.7967	-2515.50
0.1929,0.8071	-2543.92
0.1689,0.8311	-2516.62
0.2064,0.7936	-2514.29
0.2134,0.7866	-2517.38
0.1802,0.8198	-2536.86
0.2305,0.7695	-2545.53
0.1981,0.8019	-2509.75
0.1746,0.8254	-2502.07
0.2263,0.7737	-2541.88
0.1995,0.8005	-2526.49
0.1692,0.8308	-2500.67
0.2006,0.7994	-2536.14
0.2001,0.7999	-2537.56
0.1839,0.8161	-2516.96
0.1949,0.8051	-2520.97
0.1788,0.8212	-2517.26
0.1903,0.8097	-2531.24
0.1881,0.8119	-2506.57
0.2202,0.7798	-2536.89
0.1912,0.8088	-2516.74
0.2138,0.7862	-2533.03
0.1781,0.8219	-2495.90
0.2158,0.7842	-2533.03
0.1771,0.8229	-2518.92
0.2433,0.7567	-2530.98
0.1990,0.8010	-2534.85
0.2088,0.7912	-2525.09
0.1763,0.8237	-2512.83
0.2248,0.7752	-2525.79
0.1682,0.8318	-2499.12
0.2538,0.7462	-2546.26
0.1969,0.8031	-2530.78
0.2014,0.7986	-2520.94
0.2023,0.7977	-2518.20
0.2032,0.7968	-2527.79
0.1860,0.8140	-2516.87
0.2447,0.7553	-2540.15
0.1847,0.8153	-2510.99
0.2139,0.7861	-2513.50
0.2022,0.7978	-2515.45
0.1996,0.8004	-2529.26
0.1765,0.8235	-2506.65
0.2538,0.7462	-2543.03
0.2056,0.7944	-2519.65
0.2140,0.7860	-2536.93
0.2334,0.7666	-2549.10
0.2426,0.7574	-2554.82
0.1677,0.8323	-2513.55
0.2903,0.7097	-2558.23
0.2012,0.7988	-2507.15
0.1955,0.8045	-2516.72
0.2183,0.7817	-2525.40
0.2294,0.7706	-2547.96
0.1721,0.8279	-2514.70
0.2609,0.7391	-2535.33
0.2015,0.7985	-2527.82
0.2290,0.7710	-2527.33
0.2075,0.7925	-2496.93
0.2013,0.7987	-2512.67
0.1802,0.8198	-2505.05
0.2779,0.7221	-2552.33
0.1969,0.8031	-2526.56
0.2080,0.7920	-2531.76
0.2150,0.7850	-2520.08
0.2123,0.7877	-2533.04
0.2055,0.7945	-2537.23
0.2760,0.7240	-2543.47
0.1986,0.8014	-2534.88
0.2057,0.7943	-2519.65
0.2080,0.7920	-2526.42
0.2089,0.7911	-2521.10
0.2015,0.7985	-2523.69
0.2311,0.7689	-2547.93
0.1814,0.8186	-2511.06
0.2090,0.7910	-2514.45
0.2031,0.7969	-2529.16
0.2171,0.7829	-2513.81
0.2020,0.7980	-2533.30
0.2075,0.7925	-2535.79
0.1958,0.8042	-2529.43
0.1894,0.8106	-2515.32
0.2456,0.7544	-2537.97
0.1743,0.8257	-2508.30
0.2120,0.7880	-2535.66
0.1975,0.8025	-2519.54
0.1685,0.8315	-2499.11
0.1996,0.8004	-2511.21
0.2439,0.7561	-2538.97
0.1419,0.8581	-2495.00
0.2315,0.7685	-2528.73
0.2105,0.7895	-2538.34
0.1839,0.8161	-2511.00
0.1840,0.8160	-2496.10
0.2363,0.7637	-2543.22
0.1477,0.8523	-2494.13
0.2256,0.7744	-2532.02
0.2388,0.7612	-2535.18
0.2323,0.7677	-2555.09
0.2230,0.7770	-2530.67
0.2066,0.7934	-2515.64
0.1891,0.8109	-2519.69
0.2159,0.7841	-2547.22
0.2511,0.7489	-2535.18
0.2138,0.7862	-2539.54
0.1974,0.8026	-2520.94
0.1995,0.8005	-2523.71
0.1972,0.8028	-2520.94
0.1976,0.8024	-2511.13
0.2470,0.7530	-2547.00
0.2106,0.7894	-2525.13
0.1876,0.8124	-2518.29
0.2047,0.7953	-2523.70
0.1895,0.8105	-2519.68
0.2273,0.7727	-2530.87
0.2864,0.7136	-2553.28
0.2170,0.7830	-2538.18
0.1786,0.8214	-2515.75
0.2051,0.7949	-2535.89
0.1886,0.8114	-2509.50
0.2118,0.7882	-2518.59
0.2452,0.7548	-2525.58
0.2013,0.7987	-2527.83
0.1958,0.8042	-2505.42
0.2231,0.7769	-2530.67
0.1859,0.8141	-2519.83
0.2129,0.7871	-2535.65
0.2211,0.7789	-2525.56
0.1917,0.8083	-2512.42
0.1861,0.8139	-2516.87
0.2052,0.7948	-2518.28
0.2394,0.7606	-2539.84
0.1947,0.8053	-2512.46
0.2003,0.7997	-2509.86
0.1789,0.8211	-2509.63
0.1848,0.8152	-2524.35
0.2015,0.7985	-2529.20
0.2271,0.7729	-2528.41
0.2104,0.7896	-2515.86
0.1799,0.8201	-2518.71
0.2144,0.7856	-2510.95
0.1862,0.8138	-2515.39
0.2003,0.7997	-2532.01
0.2003,0.7997	-2519.55
0.2164,0.7836	-2525.32
0.2039,0.7961	-2515.52
0.1874,0.8126	-2521.23
0.1810,0.8190	-2517.12
0.1854,0.8146	-2533.18
0.2071,0.7929	-2525.07
0.2332,0.7668	-2550.29
0.1896,0.8104	-2522.58
0.2148,0.7852	-2527.85
0.2075,0.7925	-2534.45
0.1848,0.8152	-2510.99
0.1805,0.8195	-2530.77
0.2144,0.7856	-2518.74
0.1755,0.8245	-2497.41
0.2164,0.7836	-2538.19
0.2199,0.7801	-2528.02
0.2083,0.7917	-2531.76
0.1889,0.8111	-2518.24
0.2244,0.7756	-2530.73
0.1851,0.8149	-2519.88
0.1968,0.8032	-2533.60
0.2123,0.7877	-2527.79
0.2029,0.7971	-2527.79
0.1722,0.8278	-2499.00
0.2426,0.7574	-2519.54
0.1863,0.8137	-2512.44
0.2139,0.7861	-2533.03
0.2195,0.7805	-2529.27
0.2101,0.7899	-2518.50
0.1992,0.8008	-2519.54
0.1831,0.8169	-2512.52
0.1961,0.8039	-2528.01
0.1888,0.8112	-2508.04
0.2078,0.7922	-2531.77
0.2218,0.7782	-2538.15
0.2161,0.7839	-2518.86
0.1834,0.8166	-2512.51
0.2312,0.7688	-2546.73
0.1672,0.8328	-2526.45
0.1809,0.8191	-2529.20
0.2025,0.7975	-2512.72
0.2249,0.7751	-2535.70
0.1839,0.8161	-2519.94
0.2554,0.7446	-2539.95
0.1744,0.8256	-2503.63
0.1904,0.8096	-2535.57
0.2302,0.7698	-2528.63
0.2275,0.7725	-2517.43
0.2296,0.7704	-2538.27
0.2625,0.7375	-2540.71
0.1950,0.8050	-2516.72
0.1764,0.8236	-2512.83
0.2049,0.7951	-2518.27
0.2154,0.7846	-2517.52
0.1954,0.8046	-2519.55
0.2336,0.7664	-2539.59
0.2082,0.7918	-2517.07
0.1646,0.8354	-2518.79
0.1983,0.8017	-2509.76
0.2281,0.7719	-2537.01
0.1852,0.8148	-2515.43
0.2321,0.7679	-2534.76
0.2120,0.7880	-2526.48
0.1748,0.8252	-2498.96
0.2051,0.7949	-2538.60
0.2377,0.7623	-2522.28
0.1701,0.8299	-2505.39
0.2545,0.7455	-2544.16
0.2392,0.7608	-2538.68
0.1610,0.8390	-2502.85
0.2243,0.7757	-2523.28
0.2380,0.7620	-2540.94
0.1724,0.8276	-2511.54
0.2360,0.7640	-2533.81
0.2314,0.7686	-2533.53
0.1828,0.8172	-2509.53
0.2237,0.7763	-2520.74
0.2009,0.7991	-2534.74
0.1718,0.8282	-2517.88
0.2339,0.7661	-2543.16
0.2055,0.7945	-2541.28
0.1859,0.8141	-2505.06
0.2234,0.7766	-2539.40
0.2246,0.7754	-2530.74
0.1880,0.8120	-2519.73
0.2017,0.7983	-2533.32
0.2016,0.7984	-2522.31
0.1877,0.8123	-2500.70
0.2255,0.7745	-2528.31
0.2219,0.7781	-2515.57
0.1847,0.8153	-2516.93
0.1680,0.8320	-2511.93
0.2261,0.7739	-2512.35
0.1892,0.8108	-2503.68
0.1913,0.8087	-2531.15
0.2192,0.7808	-2538.15
0.1861,0.8139	-2521.30
0.1779,0.8221	-2517.33
0.2196,0.7804	-2520.40
0.2221,0.7779	-2516.84
0.1946,0.8054	-2518.14
0.2251,0.7749	-2553.01
0.1870,0.8130	-2505.08
0.1762,0.8238	-2522.09
0.2083,0.7917	-2525.08
0.1996,0.8004	-2515.37
0.2146,0.7854	-2523.95
0.2136,0.7864	-2520.00
0.1810,0.8190	-2517.12
0.1879,0.8121	-2516.81
0.1838,0.8162	-2502.06
0.1912,0.8088	-2522.51
0.1743,0.8257	-2512.97
0.1914,0.8086	-2510.97
0.1691,0.8309	-2503.86
0.2128,0.7872	-2519.96
0.1969,0.8031	-2515.32
0.1998,0.8002	-2533.42
0.1900,0.8100	-2515.31
0.2175,0.7825	-2525.37
0.1541,0.8459	-2501.93
0.2166,0.7834	-2536.90
0.1902,0.8098	-2512.41
0.1994,0.8006	-2515.37
0.1939,0.8061	-2518.14
0.2038,0.7962	-2519.60
0.1557,0.8443	-2503.42
0.2280,0.7720	-2529.69
0.1665,0.8335	-2505.64
0.2269,0.7731	-2523.49
0.1954,0.8046	-2530.87
0.2031,0.7969	-2520.95
0.1767,0.8233	-2514.34
0.2503,0.7497	-2538.37
0.2075,0.7925	-2523.73
0.2237,0.7763	-2523.23
0.1906,0.8094	-2516.75
0.1911,0.8089	-2521.07
0.2163,0.7837	-2539.47
0.2250,0.7750	-2533.23
0.2239,0.7761	-2543.13
0.2022,0.7978	-2531.92
0.1801,0.8199	-2503.53
0.2035,0.7965	-2527.78
0.2256,0.7744	-2522.15
0.2033,0.7967	-2505.93
0.2213,0.7787	-2515.50
0.2131,0.7869	-2512.13
0.1692,0.8308	-2514.99
0.1685,0.8315	-2500.70
0.2180,0.7820	-2525.39
0.1944,0.8056	-2520.98
0.2291,0.7709	-2534.62
0.2462,0.7538	-2538.02
0.1808,0.8192	-2526.20
0.1957,0.8043	-2528.02
0.2365,0.7635	-2532.67
0.1855,0.8145	-2536.12
0.2064,0.7936	-2542.57
0.2544,0.7456	-2550.60
0.1916,0.8084	-2523.93
0.2006,0.7994	-2531.99
0.2296,0.7704	-2535.85
0.1987,0.8013	-2508.38
0.1943,0.8057	-2532.36
0.2493,0.7507	-2555.92
0.1965,0.8035	-2511.09
0.1873,0.8127	-2508.02
0.2075,0.7925	-2530.43
0.2120,0.7880	-2527.79
0.2072,0.7928	-2525.07
0.2213,0.7787	-2526.82
0.2202,0.7798	-2516.65
0.2202,0.7798	-2521.71
0.2011,0.7989	-2529.21
0.1799,0.8201	-2502.02
0.2342,0.7658	-2527.76
0.2224,0.7776	-2533.15
0.2358,0.7642	-2538.50
0.2130,0.7870	-2530.42
0.2222,0.7778	-2511.84
0.1719,0.8281	-2506.86
0.2522,0.7478	-2539.64
0.2068,0.7932	-2543.88
0.2505,0.7495	-2550.45
0.1907,0.8093	-2528.32
0.2165,0.7835	-2508.60
0.1771,0.8229	-2529.67
0.2187,0.7813	-2539.43
0.1988,0.8012	-2534.87
0.2241,0.7759	-2530.71
0.1987,0.8013	-2525.11
0.1668,0.8332	-2515.27
0.1975,0.8025	-2527.95
0.2380,0.7620	-2528.14
0.1738,0.8262	-2508.32
0.2205,0.7795	-2539.41
0.2118,0.7882	-2515.96
0.1818,0.8182	-2506.54
0.2182,0.7818	-2527.95
0.2680,0.7320	-2548.43
0.1813,0.8187	-2495.99
0.2220,0.7780	-2521.85
0.1988,0.8012	-2529.29
0.1834,0.8166	-2512.51
0.2009,0.7991	-2537.50
0.2624,0.7376	-2552.07
0.1659,0.8341	-2492.76
0.1921,0.8079	-2529.66
0.1896,0.8104	-2521.13
0.2094,0.7906	-2522.44
0.1943,0.8057	-2535.20
0.2397,0.7603	-2550.25
0.1886,0.8114	-2508.04
0.2002,0.7998	-2527.86
0.2067,0.7933	-2522.37
0.2017,0.7983	-2516.81
0.2126,0.7874	-2513.39
0.2420,0.7580	-2529.71
0.1791,0.8209	-2518.76
0.2260,0.7740	-2535.73
0.1826,0.8174	-2521.52
0.1890,0.8110	-2515.33
0.2000,0.8000	-2526.48
0.2137,0.7863	-2523.91
0.2124,0.7876	-2538.28
0.2098,0.7902	-2538.37
0.2167,0.7833	-2518.91
0.1941,0.8059	-2496.78
0.2050,0.7950	-2526.41
0.2062,0.7938	-2522.36
0.2280,0.7720	-2537.01
0.2190,0.7810	-2515.27
0.2093,0.7907	-2518.45
0.1960,0.8040	-2511.07
0.2044,0.7956	-2514.18
0.1865,0.8135	-2518.33
0.2211,0.7789	-2523.04
0.2298,0.7702	-2529.81
0.2058,0.7942	-2514.25
0.2076,0.7924	-2523.73
0.2078,0.7922	-2539.79
0.2112,0.7888	-2534.36
0.2158,0.7842	-2530.45
0.2023,0.7977	-2518.20
0.2248,0.7752	-2515.89
0.2230,0.7770	-2536.91
0.2012,0.7988	-2522.31
0.1998,0.8002	-2505.67
0.2278,0.7722	-2535.78
0.1855,0.8145	-2516.89
0.2005,0.7995	-2511.25
0.2209,0.7791	-2535.63
0.1905,0.8095	-2489.26
0.2283,0.7717	-2528.49
0.2127,0.7873	-2516.02
0.1900,0.8100	-2518.21
0.2081,0.7919	-2526.42
0.2073,0.7927	-2533.12
0.1935,0.8065	-2522.43
0.2425,0.7575	-2529.76
0.2102,0.7898	-2521.15
0.1836,0.8164	-2513.99
0.2019,0.7981	-2505.82
0.2020,0.7980	-2519.57
0.1716,0.8284	-2511.60
0.2343,0.7657	-2533.70
0.2021,0.7979	-2530.56
0.1796,0.8204	-2511.13
0.1860,0.8140	-2519.83
0.2309,0.7691	-2523.87
0.2016,0.7984	-2536.08
0.2012,0.7988	-2529.21
0.1929,0.8071	-2509.57
0.1914,0.8086	-2523.94
0.1974,0.8026	-2516.73
0.2114,0.7886	-2521.20
0.1826,0.8174	-2515.53
0.1878,0.8122	-2513.89
0.1773,0.8227	-2508.16
0.2114,0.7886	-2527.78
0.2286,0.7714	-2516.35
0.2076,0.7924	-2523.73
0.2269,0.7731	-2548.01
0.2078,0.7922	-2529.09
0.1847,0.8153	-2533.26
0.2145,0.7855	-2518.76
0.2328,0.7672	-2534.80
0.1820,0.8180	-2506.54
0.1966,0.8034	-2527.99
0.2104,0.7896	-2523.80
0.1886,0.8114	-2518.25
0.2314,0.7686	-2539.53
0.2001,0.7999	-2523.70
0.2111,0.7889	-2521.18
0.2014,0.7986	-2530.58
0.2137,0.7863	-2531.73
0.1758,0.8242	-2509.77
0.2433,0.7567	-2537.80
0.2434,0.7566	-2531.00
0.2100,0.7900	-2519.82
0.2105,0.7895	-2543.63
0.1950,0.8050	-2529.48
0.2013,0.7987	-2520.94
0.2321,0.7679	-2525.19
0.2349,0.7651	-2542.00
0.2192,0.7808	-2527.99
0.2014,0.7986	-2520.94
0.1950,0.8050	-2525.22
0.2108,0.7892	-2535.69
0.2025,0.7975	-2519.58
0.2162,0.7838	-2512.43
0.2121,0.7879	-2531.73
0.1990,0.8010	-2518.15
0.2113,0.7887	-2526.46
0.1994,0.8006	-2520.93
0.1904,0.8096	-2510.96
0.2073,0.7927	-2526.41
0.2000,0.8000	-2522.32
0.2066,0.7934	-2527.75
0.1909,0.8091	-2508.08
0.1870,0.8130	-2510.96
0.2197,0.7803	-2525.48
0.2402,0.7598	-2534.12
0.2032,0.7968	-2531.89
0.2251,0.7749	-2530.76
0.1859,0.8141	-2519.83
0.1849,0.8151	-2524.34
0.1775,0.8225	-2509.69
0.2593,0.7407	-2543.50
0.1865,0.8135	-2505.07
0.1931,0.8069	-2513.86
0.1937,0.8063	-2519.57
0.1770,0.8230	-2503.57
0.2007,0.7993	-2527.84
0.2556,0.7444	-2525.01
0.2060,0.7940	-2516.96
0.2128,0.7872	-2506.87
0.2132,0.7868	-2533.03
0.1884,0.8116	-2508.04
0.1773,0.8227	-2497.42
0.2037,0.7963	-2522.33
0.1758,0.8242	-2500.50
0.1971,0.8029	-2516.73
0.2249,0.7751	-2534.46
0.2073,0.7927	-2542.51
0.1859,0.8141	-2518.35
0.1968,0.8032	-2519.54
0.1810,0.8190	-2517.12
0.2096,0.7904	-2539.71
0.2121,0.7879	-2521.23
0.1915,0.8085	-2521.06
0.1906,0.8094	-2512.41
0.1844,0.8156	-2524.37
0.1765,0.8235	-2502.03
0.2173,0.7827	-2535.61
0.1824,0.8176	-2496.04
0.2155,0.7845	-2516.24
0.1749,0.8251	-2529.99
0.1662,0.8338	-2525.01
0.1968,0.8032	-2516.72
0.2091,0.7909	-2515.78
0.2027,0.7973	-2526.43
0.2013,0.7987	-2523.69
0.1781,0.8219	-2508.14
0.1778,0.8222	-2500.49
0.1992,0.8008	-2512.58
0.2106,0.7894	-2527.77
0.2043,0.7957	-2522.33
0.2213,0.7787	-2521.79
0.2223,0.7777	-2539.40
0.1760,0.8240	-2508.22
0.2187,0.7813	-2530.52
0.1772,0.8228	-2525.05
0.2416,0.7584	-2546.83
0.2129,0.7871	-2529.11
0.2516,0.7484	-2529.77
0.1954,0.8046	-2525.21
0.2201,0.7799	-2529.29
0.1877,0.8123	-2505.10
0.2295,0.7705	-2527.37
0.1804,0.8196	-2489.91
0.2226,0.7774	-2529.40
0.1773,0.8227	-2520.44
0.2165,0.7835	-2527.90
0.1696,0.8304	-2516.54
0.2175,0.7825	-2529.21
0.1962,0.8038	-2519.54
0.2148,0.7852	-2527.85
0.1769,0.8231	-2511.25
0.1806,0.8194	-2505.04
0.1858,0.8142	-2503.58
0.1995,0.8005	-2530.66
0.1935,0.8065	-2513.86
0.2102,0.7898	-2529.09
0.1992,0.8008	-2530.67
0.1842,0.8158	-2525.88
0.1856,0.8144	-2509.50
0.1853,0.8147	-2524.31
0.2002,0.7998	-2536.17
0.2063,0.7937	-2523.71
0.1983,0.8017	-2509.76
0.1734,0.8266	-2509.90
0.1849,0.8151	-2534.72
0.2089,0.7911	-2521.10
0.1904,0.8096	-2518.20
0.1969,0.8031	-2518.13
0.2175,0.7825	-2527.93
0.2167,0.7833	-2521.48
0.1735,0.8265	-2519.27
0.2234,0.7766	-2507.02
0.1663,0.8337	-2500.82
0.2042,0.7958	-2516.89
0.2386,0.7614	-2532.84
0.2145,0.7855	-2523.94
0.1788,0.8212	-2506.59
0.2392,0.7608	-2549.09
0.1899,0.8101	-2522.57
0.1914,0.8086	-2513.86
0.1764,0.8236	-2520.53
0.1867,0.8133	-2550.69
0.1916,0.8084	-2509.54
0.2196,0.7804	-2534.35
0.1922,0.8078	-2516.73
0.1764,0.8236	-2506.66
0.1736,0.8264	-2522.37
0.1785,0.8215	-2517.28
0.2234,0.7766	-2523.21
0.2091,0.7909	-2539.73
0.1864,0.8136	-2512.44
0.1867,0.8133	-2516.85
0.1663,0.8337	-2502.42
0.1955,0.8045	-2516.72
0.2343,0.7657	-2537.25
0.2477,0.7523	-2529.26
0.1764,0.8236	-2512.82
0.2080,0.7920	-2526.42
0.1780,0.8220	-2517.32
0.2121,0.7879	-2529.10
0.2027,0.7973	-2538.75
0.2337,0.7663	-2530.10
0.1796,0.8204	-2514.17
0.1941,0.8059	-2526.68
0.1758,0.8242	-2519.04
0.2009,0.7991	-2519.55
0.1992,0.8008	-2529.28
0.2552,0.7448	-2528.14
0.1680,0.8320	-2500.72
0.2111,0.7889	-2522.50
0.2158,0.7842	-2545.94
0.1843,0.8157	-2508.02
0.2005,0.7995	-2514.02
0.2334,0.7666	-2539.59
0.1521,0.8479	-2529.70
0.2324,0.7676	-2527.61
0.1970,0.8030	-2525.16
0.2035,0.7965	-2511.41
0.1983,0.8017	-2519.54
0.2232,0.7768	-2524.44
0.1626,0.8374	-2520.74
0.2156,0.7844	-2531.74
0.2030,0.7970	-2522.32
0.2051,0.7949	-2514.22
0.2032,0.7968	-2515.49
0.1891,0.8109	-2524.06
0.1416,0.8584	-2493.24
0.2062,0.7938	-2523.71
0.2208,0.7792	-2535.63
0.1879,0.8121	-2525.59
0.2010,0.7990	-2519.55
0.1839,0.8161	-2506.53
0.1643,0.8357	-2523.71
0.2300,0.7700	-2529.82
0.2366,0.7634	-2540.88
0.1872,0.8128	-2543.26
0.2197,0.7803	-2545.76
0.1804,0.8196	-2515.64
0.1752,0.8248	-2498.96
0.2473,0.7527	-2534.78
0.1838,0.8162	-2527.40
0.2212,0.7788	-2526.82
0.2412,0.7588	-2525.04
0.1902,0.8098	-2526.90
0.1706,0.8294	-2516.43
0.2052,0.7948	-2516.93
0.1881,0.8119	-2521.19
0.1925,0.8075	-2509.56
0.2556,0.7444	-2536.76
0.2404,0.7596	-2529.54
0.2178,0.7822	-2527.94
0.1766,0.8234	-2517.43
0.1781,0.8219	-2505.08
0.1887,0.8113	-2503.66
0.2583,0.7417	-2542.36
0.2116,0.7884	-2538.30
0.2163,0.7837	-2530.46
0.1959,0.8041	-2523.78
0.1922,0.8078	-2510.99
0.1984,0.8016	-2518.14
0.2131,0.7869	-2526.50
0.1946,0.8054	-2509.61
0.2032,0.7968	-2516.86
0.1866,0.8134	-2521.27
0.1732,0.8268	-2516.17
0.1831,0.8169	-2508.03
0.2099,0.7901	-2519.81
0.1878,0.8122	-2524.13
0.1892,0.8108	-2503.68
0.1791,0.8209	-2511.15
0.1983,0.8017	-2516.74
0.2083,0.7917	-2521.08
0.2097,0.7903	-2521.13
0.1817,0.8183	-2515.57
0.2017,0.7983	-2511.31
0.1725,0.8275	-2524.08
0.1810,0.8190	-2509.57
0.1626,0.8374	-2502.70
0.1932,0.8068	-2519.58
0.2091,0.7909	-2530.42
0.1927,0.8073	-2503.83
0.1956,0.8044	-2515.30
0.1951,0.8049	-2516.72
0.1582,0.8418	-2509.82
0.1960,0.8040	-2515.31
0.1786,0.8214	-2505.07
0.1879,0.8121	-2515.35
0.1949,0.8051	-2508.21
0.2134,0.7866	-2521.29
0.1915,0.8085	-2489.37
0.1990,0.8010	-2526.50
0.2233,0.7767	-2520.70
0.1933,0.8067	-2528.15
0.1834,0.8166	-2511.01
0.1686,0.8314	-2505.48
0.2039,0.7961	-2530.50
0.1795,0.8205	-2514.17
0.2191,0.7809	-2535.61
0.2048,0.7952	-2511.49
0.2039,0.7961	-2525.05
0.1882,0.8118	-2516.80
0.1886,0.8114	-2513.87
0.1903,0.8097	-2505.17
0.2011,0.7989	-2527.83
0.1839,0.8161	-2515.47
0.1958,0.8042	-2530.85
0.1982,0.8018	-2520.93
0.2091,0.7909	-2521.10
0.1972,0.8028	-2508.31
0.1937,0.8063	-2533.84
0.1775,0.8225	-2532.70
0.1845,0.8155	-2510.99
0.2013,0.7987	-2529.20
0.2298,0.7702	-2524.97
0.1722,0.8278	-2513.12
0.1703,0.8297	-2500.63
0.1697,0.8303	-2521.29
0.1610,0.8390	-2506.14
0.2162,0.7838	-2522.73
0.2225,0.7775	-2530.65
0.1696,0.8304	-2502.24
0.1786,0.8214	-2505.07
0.2125,0.7875	-2517.32
0.1655,0.8345	-2517.04
0.2269,0.7731	-2549.24
0.2036,0.7964	-2522.33
0.1756,0.8244	-2528.34
0.1938,0.8062	-2506.74
0.2027,0.7973	-2516.84
0.1930,0.8070	-2509.57
0.2201,0.7799	-2515.38
0.1827,0.8173	-2512.53
0.2134,0.7866	-2523.90
0.2129,0.7871	-2526.50
0.1863,0.8137	-2509.49
0.2240,0.7760	-2523.26
0.2171,0.7829	-2538.17
0.2112,0.7888	-2517.23
0.2138,0.7862	-2517.40
0.2082,0.7918	-2517.07
0.1904,0.8096	-2534.12
0.2244,0.7756	-2543.13
0.1902,0.8098	-2512.41
0.2068,0.7932	-2529.10
0.2116,0.7884	-2519.89
0.2084,0.7916	-2546.44
0.2050,0.7950	-2516.92
0.2055,0.7945	-2518.30
0.2143,0.7857	-2527.83
0.2006,0.7994	-2514.02
0.2116,0.7884	-2523.84
0.1937,0.8063	-2503.88
0.1847,0.8153	-2527.32
0.2290,0.7710	-2539.47
0.1948,0.8052	-2525.23
0.2027,0.7973	-2538.76
0.1874,0.8126	-2527.10
0.1906,0.8094	-2521.09
0.1943,0.8057	-2522.40
0.2059,0.7941	-2529.11
0.2212,0.7788	-2535.63
0.2230,0.7770	-2533.16
0.1842,0.8158	-2511.00
0.2262,0.7738	-2541.88
0.2000,0.8000	-2532.02
0.2014,0.7986	-2525.07
0.2525,0.7475	-2536.42
0.2099,0.7901	-2531.74
0.1817,0.8183	-2521.59
0.2041,0.7959	-2530.50
0.1628,0.8372	-2505.96
0.2040,0.7960	-2520.97
0.2650,0.7350	-2543.06
0.2228,0.7772	-2511.91
0.2014,0.7986	-2505.78
0.1801,0.8199	-2509.60
0.1788,0.8212	-2521.83
0.2085,0.7915	-2513.08
0.2090,0.7910	-2515.78
0.1856,0.8144	-2505.06
0.2117,0.7883	-2521.21
0.1796,0.8204	-2514.17
0.1759,0.8241	-2503.59
0.2127,0.7873	-2527.80
0.2064,0.7936	-2510.25
0.1883,0.8117	-2515.34
0.1932,0.8068	-2518.15
0.1841,0.8159	-2508.02
0.1978,0.8022	-2516.73
0.2405,0.7595	-2541.05
0.2414,0.7586	-2529.65
0.1960,0.8040	-2516.72
0.1996,0.8004	-2523.71
0.1915,0.8085	-2516.74
0.2072,0.7928	-2531.78
0.2203,0.7797	-2516.66
0.2155,0.7845	-2514.94
0.1805,0.8195	-2529.26
0.1873,0.8127	-2503.62
0.2045,0.7955	-2525.05
0.1923,0.8077	-2506.68
0.2211,0.7789	-2526.81
0.2187,0.7813	-2531.79
0.1974,0.8026	-2525.14
0.1988,0.8012	-2516.75
0.1970,0.8030	-2539.20
0.1961,0.8039	-2526.59
0.1938,0.8062	-2519.57
0.1736,0.8264	-2519.25
0.1864,0.8136	-2516.86
0.1856,0.8144	-2522.80
0.2159,0.7841	-2525.30
0.2043,0.7957	-2520.98
0.1584,0.8416	-2504.78
0.1756,0.8244	-2495.86
0.2008,0.7992	-2502.97
0.2354,0.7646	-2532.59
0.2088,0.7912	-2519.76
0.2103,0.7897	-2531.73
0.1659,0.8341	-2495.99
0.1810,0.8190	-2505.04
0.2077,0.7923	-2527.75
0.1988,0.8012	-2512.57
0.2167,0.7833	-2547.18
0.1863,0.8137	-2525.71
0.2048,0.7952	-2530.48
0.2088,0.7912	-2534.42
0.1988,0.8012	-2532.08
0.1883,0.8117	-2524.11
0.2407,0.7593	-2519.24
0.1848,0.8152	-2528.80
0.2098,0.7902	-2527.76
0.2379,0.7621	-2540.93
0.1896,0.8104	-2528.39
0.1719,0.8281	-2499.00
0.2297,0.7703	-2524.96
0.1985,0.8015	-2526.51
0.1930,0.8070	-2513.86
0.2393,0.7607	-2549.09
0.2163,0.7837	-2531.75
0.1667,0.8333	-2494.35
0.2275,0.7725	-2524.77
0.1938,0.8062	-2513.87
0.1892,0.8108	-2534.25
0.2262,0.7738	-2532.04
0.1994,0.8006	-2526.49
0.2020,0.7980	-2519.57
0.2224,0.7776	-2546.91
0.1910,0.8090	-2512.41
0.1992,0.8008	-2526.49
0.2161,0.7839	-2512.42
0.2158,0.7842	-2536.91
0.2261,0.7739	-2532.04
0.2145,0.7855	-2534.33
0.1682,0.8318	-2513.50
0.1880,0.8120	-2525.59
0.2059,0.7941	-2525.06
0.2010,0.7990	-2514.03
0.2031,0.7969	-2522.32
0.2195,0.7805	-2517.85
0.2011,0.7989	-2511.28
0.2055,0.7945	-2527.76
0.2212,0.7788	-2526.82
0.2151,0.7849	-2521.38
0.2038,0.7962	-2519.60
0.2223,0.7777	-2536.90
0.1970,0.8030	-2512.51
0.1949,0.8051	-2518.13
0.2041,0.7959	-2515.53
0.1998,0.8002	-2534.81
0.1806,0.8194	-2509.58
0.2049,0.7951	-2516.92
0.1863,0.8137	-2525.71
0.1998,0.8002	-2525.09
0.2075,0.7925	-2523.73
0.1863,0.8137	-2530.14
0.1966,0.8034	-2519.54
0.2121,0.7879	-2530.41
0.2083,0.7917	-2538.44
0.2118,0.7882	-2529.10
0.2161,0.7839	-2517.57
0.2013,0.7987	-2516.80
0.2124,0.7876	-2531.73
0.1941,0.8059	-2519.56
0.2035,0.7965	-2520.96
0.2081,0.7919	-2529.09
0.1936,0.8064	-2526.71
0.1849,0.8151	-2509.50
0.1942,0.8058	-2518.14
0.2220,0.7780	-2530.63
0.1861,0.8139	-2515.40
0.2302,0.7698	-2538.29
0.2124,0.7876	-2536.97
0.2303,0.7697	-2518.99
0.1852,0.8148	-2509.50
0.2421,0.7579	-2524.02
0.2064,0.7936	-2527.75
0.2067,0.7933	-2514.30
0.1817,0.8183	-2514.07
0.2337,0.7663	-2531.28
0.1758,0.8242	-2512.86
0.2351,0.7649	-2534.93
0.2011,0.7989	-2531.97
0.2223,0.7777	-2531.89
0.1984,0.8016	-2530.71
0.2347,0.7653	-2528.99
0.2008,0.7992	-2515.41
0.2161,0.7839	-2534.32
0.1829,0.8171	-2506.53
0.2374,0.7626	-2523.41
0.2087,0.7913	-2531.75
0.2340,0.7660	-2539.61
0.2205,0.7795	-2519.20
0.2092,0.7908	-2534.41
0.2250,0.7750	-2530.75
0.2303,0.7697	-2569.66
0.2104,0.7896	-2530.41
0.2423,0.7577	-2530.88
0.2483,0.7517	-2537.09
0.2138,0.7862	-2522.61
0.1804,0.8196	-2512.61
0.2235,0.7765	-2536.91
0.2064,0.7936	-2537.18
0.2348,0.7652	-2526.64
0.2221,0.7779	-2535.64
0.2245,0.7755	-2546.85
0.1914,0.8086	-2516.74
0.2449,0.7551	-2546.93
0.1839,0.8161	-2502.06
0.2090,0.7910	-2537.07
0.2242,0.7758	-2530.72
0.1992,0.8008	-2525.10
0.1889,0.8111	-2512.41
0.2342,0.7658	-2527.77
0.2181,0.7819	-2525.39
0.2089,0.7911	-2530.42
0.2032,0.7968	-2515.49
0.2153,0.7847	-2526.57
0.2048,0.7952	-2526.41
0.2300,0.7700	-2537.07
0.1978,0.8022	-2527.94
0.1990,0.8010	-2505.61
0.2090,0.7910	-2509.12
0.2129,0.7871	-2540.88
0.2107,0.7893	-2529.09
0.2174,0.7826	-2540.73
0.2287,0.7713	-2534.60
0.1897,0.8103	-2526.93
0.2102,0.7898	-2519.82
0.2176,0.7824	-2516.42
0.2164,0.7836	-2533.04
0.2162,0.7838	-2539.48
0.2507,0.7493	-2524.18
0.1717,0.8283	-2527.33
0.2197,0.7803	-2545.76
0.2056,0.7944	-2522.35
0.2059,0.7941	-2534.51
0.2499,0.7501	-2539.44
0.2381,0.7619	-2532.80
0.2133,0.7867	-2529.12
0.2264,0.7736	-2516.07
0.1866,0.8134	-2518.33
0.2066,0.7934	-2533.14
0.2179,0.7821	-2525.39
0.2010,0.7990	-2504.38
0.1991,0.8009	-2519.54
0.2267,0.7733	-2532.07
0.1839,0.8161	-2516.96
0.1947,0.8053	-2513.88
0.2076,0.7924	-2526.41
0.1910,0.8090	-2528.29
0.1957,0.8043	-2530.85
0.2265,0.7735	-2525.92
0.2072,0.7928	-2504.94
0.2119,0.7881	-2543.55
0.1902,0.8098	-2510.96
0.2163,0.7837	-2529.18
0.1841,0.8159	-2522.91
0.2043,0.7957	-2523.69
0.1977,0.8023	-2512.53
0.2082,0.7918	-2526.42
0.1885,0.8115	-2522.64
0.1793,0.8207	-2520.27
0.2013,0.7987	-2512.67
0.2406,0.7594	-2529.57
0.1723,0.8277	-2513.12
0.2265,0.7735	-2530.83
0.1950,0.8050	-2526.64
0.1776,0.8224	-2515.82
0.2239,0.7761	-2523.25
0.2208,0.7792	-2516.71
0.1592,0.8408	-2526.32
0.2313,0.7687	-2517.90
0.2167,0.7833	-2533.04
0.1642,0.8358	-2530.23
0.2284,0.7716	-2539.46
0.2120,0.7880	-2542.23
0.2028,0.7972	-2525.06
0.2071,0.7929	-2515.67
0.2149,0.7851	-2530.44
0.1775,0.8225	-2526.56
0.2300,0.7700	-2529.82
0.2266,0.7734	-2545.57
0.1779,0.8221	-2526.51
0.1909,0.8091	-2522.52
0.2249,0.7751	-2534.46
0.1721,0.8279	-2513.13
0.2232,0.7768	-2538.16
0.2391,0.7609	-2530.57
0.1670,0.8330	-2523.28
0.1847,0.8153	-2518.41
0.2000,0.8000	-2515.39
0.1875,0.8125	-2518.29
0.2298,0.7702	-2543.11
0.2450,0.7550	-2548.05
0.2221,0.7779	-2525.62
0.2003,0.7997	-2512.62
0.2018,0.7982	-2525.06
0.1979,0.8021	-2522.33
0.1685,0.8315	-2505.49
0.2088,0.7912	-2538.41
0.2117,0.7883	-2519.90
0.2104,0.7896	-2529.09
0.2289,0.7711	-2522.46
0.2477,0.7523	-2537.04
0.1750,0.8250	-2509.81
0.1946,0.8054	-2511.04
0.2012,0.7988	-2529.21
0.1866,0.8134	-2519.80
0.2199,0.7801	-2536.88
0.2359,0.7641	-2515.00
0.1680,0.8320	-2518.32
0.1964,0.8036	-2518.13
0.2082,0.7918	-2531.76
0.1907,0.8093	-2510.97
0.2341,0.7659	-2533.68
0.2332,0.7668	-2538.39
0.1586,0.8414	-2514.77
0.2077,0.7923	-2515.70
0.1831,0.8169	-2505.04
0.1969,0.8031	-2532.19
0.2336,0.7664	-2530.09
0.1988,0.8012	-2513.96
0.1501,0.8499	-2500.77
0.2058,0.7942	-2522.36
0.1579,0.8421	-2519.90
0.1894,0.8106	-2515.32
0.2230,0.7770	-2541.90
0.2014,0.7986	-2520.94
0.1378,0.8622	-2501.26
0.2301,0.7699	-2544.32
0.1911,0.8089	-2519.63
0.1724,0.8276	-2520.95
0.2341,0.7659	-2540.80
0.1985,0.8015	-2530.70
0.1687,0.8313	-2503.88
0.2121,0.7879	-2526.48
0.2096,0.7904	-2525.11
0.1620,0.8380	-2509.33
0.2227,0.7773	-2545.65
0.2054,0.7946	-2530.47
0.1880,0.8120	-2512.42
0.1940,0.8060	-2522.41
0.1994,0.8006	-2534.83
0.1704,0.8296	-2521.20
0.1973,0.8027	-2525.15
0.2128,0.7872	-2533.03
0.1720,0.8280	-2516.29
0.1784,0.8216	-2517.29
0.1736,0.8264	-2502.09
0.1570,0.8430	-2506.63
0.1661,0.8339	-2494.37
0.2370,0.7630	-2530.38
0.1936,0.8064	-2518.14
0.1886,0.8114	-2518.25
0.1844,0.8156	-2505.05
0.1662,0.8338	-2504.05
0.1800,0.8200	-2515.66
0.2106,0.7894	-2515.88
0.2184,0.7816	-2534.34
0.2067,0.7933	-2527.75
0.1678,0.8322	-2537.57
0.1845,0.8155	-2508.02
0.1829,0.8171	-2505.04
0.2021,0.7979	-2525.06
0.2252,0.7748	-2528.29
0.1796,0.8204	-2509.61
0.1673,0.8327	-2507.18
0.2170,0.7830	-2536.89
0.1769,0.8231	-2514.33
0.2031,0.7969	-2522.32
0.1984,0.8016	-2512.55
0.1663,0.8337	-2505.65
0.1515,0.8485	-2504.00
0.2122,0.7878	-2523.86
0.1664,0.8336	-2515.31
0.1864,0.8136	-2512.44
0.2285,0.7715	-2529.72
0.1956,0.8044	-2522.37
0.1871,0.8129	-2528.59
0.2216,0.7784	-2531.87
0.2087,0.7913	-2514.43
0.1782,0.8218	-2517.31
0.2538,0.7462	-2535.48
0.1690,0.8310	-2510.23
0.1962,0.8038	-2519.54
0.1935,0.8065	-2519.57
0.2117,0.7883	-2521.21
0.1664,0.8336	-2504.03
0.2220,0.7780	-2523.10
0.1830,0.8170	-2521.50
0.1821,0.8179	-2520.06
0.2015,0.7985	-2509.92
0.1742,0.8258	-2500.52
0.1728,0.8272	-2492.72
0.2176,0.7824	-2533.05
0.2150,0.7850	-2536.92
0.1855,0.8145	-2518.37
0.1932,0.8068	-2505.28
0.1941,0.8059	-2529.53
0.1859,0.8141	-2512.45
0.1898,0.8102	-2534.18
0.2132,0.7868	-2529.12
0.2240,0.7760	-2522.01
0.2103,0.7897	-2539.67
0.1754,0.8246	-2498.96
0.1963,0.8037	-2516.72
0.2340,0.7660	-2526.56
0.1790,0.8210	-2500.49
0.2336,0.7664	-2530.09
0.2110,0.7890	-2527.77
0.2009,0.7991	-2504.37
0.2036,0.7964	-2526.42
0.2089,0.7911	-2526.42
0.1750,0.8250	-2508.26
0.2318,0.7682	-2532.35
0.1843,0.8157	-2521.41
0.1801,0.8199	-2515.66
0.1925,0.8075	-2496.65
0.2332,0.7668	-2536.01
0.1960,0.8040	-2509.66
0.2171,0.7829	-2540.74
0.1913,0.8087	-2515.30
0.2182,0.7818	-2526.68
0.2099,0.7901	-2523.79
0.1998,0.8002	-2530.64
0.2038,0.7962	-2527.78
0.2161,0.7839	-2525.30
0.1750,0.8250	-2509.81
0.1779,0.8221	-2509.68
0.1787,0.8213	-2512.69
0.2171,0.7829	-2520.22
0.2161,0.7839	-2529.17
0.2295,0.7705	-2522.52
0.1642,0.8358	-2499.32
0.2136,0.7864	-2516.09
0.1769,0.8231	-2520.48
0.2055,0.7945	-2516.94
0.1990,0.8010	-2513.97
0.2251,0.7749	-2522.11
0.1702,0.8298	-2518.06
0.1826,0.8174	-2524.52
0.2046,0.7954	-2519.62
0.2043,0.7957	-2516.90
0.2058,0.7942	-2523.71
0.2069,0.7931	-2518.35
0.2253,0.7747	-2532.00
0.1646,0.8354	-2512.29
0.2115,0.7885	-2523.83
0.1917,0.8083	-2498.03
0.1974,0.8026	-2515.33
0.2407,0.7593	-2542.21
0.2244,0.7756	-2527.01
0.1530,0.8470	-2507.22
0.2048,0.7952	-2538.62
0.1789,0.8211	-2526.40
0.1941,0.8059	-2526.68
0.2185,0.7815	-2529.24
0.2356,0.7644	-2547.91
0.1909,0.8091	-2513.86
0.1861,0.8139	-2518.35
0.1915,0.8085	-2503.78
0.2074,0.7926	-2522.39
0.2049,0.7951	-2512.85
0.2128,0.7872	-2530.42
0.1859,0.8141	-2522.78
0.1750,0.8250	-2517.57
0.2039,0.7961	-2518.24
0.2158,0.7842	-2529.16
0.1947,0.8053	-2511.04
0.2136,0.7864	-2536.94
0.1800,0.8200	-2508.08
0.2163,0.7837	-2539.48
0.1827,0.8173	-2523.01
0.2421,0.7579	-2543.42
0.2137,0.7863	-2523.91
0.2153,0.7847	-2527.86
0.1783,0.8217	-2518.82
0.1992,0.8008	-2518.15
0.1853,0.8147	-2522.83
0.2283,0.7717	-2522.40
0.2269,0.7731	-2533.30
0.2068,0.7932	-2533.13
0.1884,0.8116	-2508.04
0.1918,0.8082	-2521.05
0.1681,0.8319	-2503.92
0.2253,0.7747	-2539.41
0.1891,0.8109	-2513.87
0.1975,0.8025	-2516.73
0.2045,0.7955	-2525.05
0.2012,0.7988	-2531.97
0.1766,0.8234	-2525.13
0.2042,0.7958	-2527.77
0.1782,0.8218	-2521.89
0.1930,0.8070	-2541.04
0.1911,0.8089	-2523.96
0.1724,0.8276	-2506.84
0.2005,0.7995	-2509.87
0.2239,0.7761	-2530.70
0.2250,0.7750	-2530.75
0.2046,0.7954	-2518.26
0.1971,0.8029	-2512.51
0.1699,0.8301	-2526.02
0.1760,0.8240	-2511.31
0.2119,0.7881	-2518.59
0.2174,0.7826	-2533.05
0.2136,0.7864	-2523.91
0.2050,0.7950	-2529.12
0.1843,0.8157	-2534.79
0.2186,0.7814	-2530.52
0.2204,0.7796	-2535.62
0.1873,0.8127	-2519.77
0.2106,0.7894	-2521.16
0.1659,0.8341	-2513.75
0.1986,0.8014	-2520.93
0.2144,0.7856	-2544.72
0.1987,0.8013	-2501.41
0.2011,0.7989	-2514.04
0.2074,0.7926	-2518.37
0.2190,0.7810	-2525.44
0.1916,0.8084	-2515.30
0.2391,0.7609	-2538.67
0.1957,0.8043	-2512.48
0.2283,0.7717	-2545.54
0.1871,0.8129	-2516.84
0.2070,0.7930	-2515.67
0.1969,0.8031	-2518.13
0.2215,0.7785	-2526.84
0.1929,0.8071	-2511.00
0.2098,0.7902	-2527.76
0.1851,0.8149	-2515.43
0.2040,0.7960	-2512.80
0.1841,0.8159	-2493.13
0.2215,0.7785	-2539.41
0.1869,0.8131	-2515.37
0.2246,0.7754	-2522.06
0.1776,0.8224	-2508.15
0.1874,0.8126	-2512.43
0.1896,0.8104	-2537.11
0.2238,0.7762	-2536.92
0.1802,0.8198	-2524.75
0.2320,0.7680	-2531.17
0.1499,0.8501	-2500.79
0.2329,0.7671	-2537.19
0.2003,0.7997	-2512.62
0.1943,0.8057	-2516.72
0.2167,0.7833	-2526.61
0.2252,0.7748	-2515.94
0.1628,0.8372	-2487.95
0.2355,0.7645	-2542.02
0.2062,0.7938	-2533.15
0.2111,0.7889	-2533.05
0.1916,0.8084	-2521.05
0.1993,0.8007	-2513.98
0.1831,0.8169	-2514.01
0.2194,0.7806	-2534.35
0.2092,0.7908	-2530.42
0.1790,0.8210	-2521.82
0.2016,0.7984	-2526.44
0.1787,0.8213	-2512.69
0.2068,0.7932	-2518.34
0.2250,0.7750	-2519.63
0.1803,0.8197	-2511.10
0.1966,0.8034	-2518.13
0.1867,0.8133	-2515.38
0.1769,0.8231	-2508.18
0.2233,0.7767	-2518.21
0.2340,0.7660	-2525.38
0.1824,0.8176	-2533.54
0.2218,0.7782	-2545.68
0.1898,0.8102	-2521.12
0.1985,0.8015	-2522.33
0.1798,0.8202	-2529.33
0.2096,0.7904	-2535.72
0.1489,0.8511	-2516.63
0.1838,0.8162	-2531.87
0.1937,0.8063	-2521.00
0.2120,0.7880	-2530.41
0.1893,0.8107	-2522.60
0.2102,0.7898	-2511.88
0.1711,0.8289	-2510.06
0.1882,0.8118	-2518.27
0.2172,0.7828	-2536.89
0.1877,0.8123	-2508.03
0.2127,0.7873	-2516.02
0.2137,0.7863	-2531.73
0.2011,0.7989	-2519.55
0.1841,0.8159	-2519.93
0.2244,0.7756	-2529.49
0.1808,0.8192	-2512.60
0.2152,0.7848	-2525.27
0.1720,0.8280	-2521.00
0.1868,0.8132	-2505.08
0.1958,0.8042	-2528.02
0.2161,0.7839	-2533.04
0.2020,0.7980	-2525.06
0.2185,0.7815	-2527.96
0.1772,0.8228	-2506.63
0.2163,0.7837	-2534.33
0.1844,0.8156	-2506.53
0.2010,0.7990	-2530.60
0.2382,0.7618	-2537.46
0.2071,0.7929	-2527.75
0.1797,0.8203	-2514.16
0.2220,0.7780	-2513.07
0.1973,0.8027	-2505.50
0.2152,0.7848	-2522.68
0.2065,0.7935	-2533.14
0.2287,0.7713	-2518.80
0.1985,0.8015	-2516.74
0.2326,0.7674	-2534.79
0.2174,0.7826	-2540.73
0.2069,0.7931	-2522.38
0.2166,0.7834	-2536.90
0.1963,0.8037	-2512.49
0.2329,0.7671	-2537.19
0.2257,0.7743	-2536.95
0.1933,0.8067	-2526.72
0.2085,0.7915	-2522.42
0.2036,0.7964	-2512.78
0.1861,0.8139	-2519.82
0.2083,0.7917	-2549.12
0.2376,0.7624	-2530.43
0.1985,0.8015	-2527.91
0.2038,0.7962	-2527.78
0.2004,0.7996	-2505.71
0.1789,0.8211	-2518.78
0.2402,0.7598	-2527.22
0.1920,0.8080	-2503.80
0.2119,0.7881	-2526.47
0.2110,0.7890	-2511.95
0.2652,0.7348	-2544.10
0.2147,0.7853	-2547.29
0.2258,0.7742	-2541.88
0.1764,0.8236	-2509.74
0.2057,0.7943	-2535.87
0.2567,0.7433	-2536.89
0.2624,0.7376	-2555.18
0.2025,0.7975	-2520.95
0.2185,0.7815	-2525.41
0.1921,0.8079	-2535.40
0.2100,0.7900	-2521.14
0.2112,0.7888	-2529.09
0.2344,0.7656	-2543.17
0.1897,0.8103	-2524.03
0.2272,0.7728	-2540.66
0.2178,0.7822	-2525.38
0.2110,0.7890	-2527.77
0.2100,0.7900	-2538.36
0.2337,0.7663	-2549.10
0.1860,0.8140	-2513.92
0.2075,0.7925	-2527.75
0.1875,0.8125	-2534.42
0.2232,0.7768	-2541.90
0.2208,0.7792	-2519.23
0.2075,0.7925	-2525.07
0.1846,0.8154	-2503.56
0.2096,0.7904	-2519.80
0.1868,0.8132	-2513.90
0.2345,0.7655	-2536.08
0.1789,0.8211	-2512.68
0.1788,0.8212	-2527.93
0.2113,0.7887	-2529.09
0.2287,0.7713	-2530.95
0.1756,0.8244	-2528.34
0.2359,0.7641	-2542.03
0.1740,0.8260	-2516.10
0.1943,0.8057	-2512.45
0.2301,0.7699	-2525.00
0.2305,0.7695	-2520.22
0.1783,0.8217	-2506.60
0.1952,0.8048	-2502.55
0.2095,0.7905	-2515.81
0.1734,0.8266	-2511.47
0.2086,0.7914	-2522.42
0.2065,0.7935	-2522.37
0.1909,0.8091	-2522.52
0.1945,0.8055	-2533.77
0.2214,0.7786	-2545.69
0.1929,0.8071	-2515.29
0.2031,0.7969	-2523.69
0.1931,0.8069	-2502.42
0.1796,0.8204	-2518.72
0.2238,0.7762	-2536.92
0.2223,0.7777	-2516.86
0.2426,0.7574	-2552.55
0.2180,0.7820	-2534.33
0.2134,0.7866	-2523.90
0.1883,0.8117	-2529.95
0.2338,0.7662	-2543.16
0.1810,0.8190	-2512.59
0.2344,0.7656	-2545.54
0.1911,0.8089	-2529.73
0.2224,0.7776	-2546.91
0.1847,0.8153	-2509.50
0.2245,0.7755	-2533.21
0.1726,0.8274	-2520.94
0.2198,0.7802	-2544.49
0.2212,0.7788	-2529.34
0.2192,0.7808	-2545.78
0.1917,0.8083	-2508.10
0.2200,0.7800	-2520.43
0.2017,0.7983	-2519.56
0.2060,0.7940	-2519.66
0.1966,0.8034	-2513.91
0.2158,0.7842	-2525.29
0.2025,0.7975	-2533.28
0.2062,0.7938	-2521.02
0.2034,0.7966	-2514.13
0.2133,0.7867	-2530.42
0.2067,0.7933	-2535.82
0.2403,0.7597	-2532.99
0.2053,0.7947	-2519.64
0.2327,0.7673	-2526.44
0.2064,0.7936	-2535.84
0.2171,0.7829	-2524.07
0.2162,0.7838	-2525.31
0.1986,0.8014	-2515.35
0.2156,0.7844	-2529.16
0.2193,0.7807	-2547.04
0.2198,0.7802	-2538.15
0.2189,0.7811	-2529.25
0.2280,0.7720	-2518.71
0.2090,0.7910	-2519.77
0.2098,0.7902	-2534.39
0.1976,0.8024	-2520.94
0.1931,0.8069	-2523.87
0.2016,0.7984	-2526.44
0.2268,0.7732	-2532.07
0.2162,0.7838	-2534.32
0.1932,0.8068	-2513.86
0.1879,0.8121	-2516.81
0.1949,0.8051	-2519.55
0.2143,0.7857	-2526.54
0.2038,0.7962	-2522.33
0.2201,0.7799	-2525.50
0.2318,0.7682	-2522.76
0.2423,0.7577	-2528.60
0.2055,0.7945	-2538.58
0.2131,0.7869	-2544.79
0.2195,0.7805	-2536.88
0.1982,0.8018	-2533.51
0.2164,0.7836	-2526.60
0.2372,0.7628	-2540.91
0.1992,0.8008	-2508.41
0.2458,0.7542	-2541.35
0.2080,0.7920	-2511.71
0.1973,0.8027	-2529.36
0.2091,0.7909	-2519.77
0.2124,0.7876	-2525.17
0.1804,0.8196	-2512.61
0.2384,0.7616	-2543.28
0.2224,0.7776	-2533.15
0.2105,0.7895	-2544.95
0.2123,0.7877	-2540.90
0.2100,0.7900	-2522.46
0.1728,0.8272	-2519.34
0.2508,0.7492	-2539.51
0.2292,0.7708	-2533.41
0.2208,0.7792	-2524.28
0.2188,0.7812	-2522.89
0.1883,0.8117	-2524.11
0.1872,0.8128	-2510.96
0.2397,0.7603	-2528.31
0.2146,0.7854	-2529.14
0.2189,0.7811	-2525.43
0.2125,0.7875	-2502.91
0.2160,0.7840	-2508.54
0.1902,0.8098	-2521.11
0.2259,0.7741	-2528.33
0.1830,0.8170	-2511.02
0.2168,0.7832	-2521.48
0.2377,0.7623	-2547.92
0.2026,0.7974	-2527.80
0.2120,0.7880	-2535.66
0.2308,0.7692	-2514.23
0.1979,0.8021	-2519.54
0.1919,0.8081	-2516.73
0.2591,0.7409	-2539.28
0.1857,0.8143	-2527.24
0.2183,0.7817	-2517.75
0.2192,0.7808	-2522.91
0.1920,0.8080	-2519.61
0.2088,0.7912	-2517.10
0.2305,0.7695	-2520.22
0.1704,0.8296	-2502.21
0.1804,0.8196	-2494.45
0.2248,0.7752	-2550.55
0.1812,0.8188	-2508.06
0.2141,0.7859	-2523.93
0.2175,0.7825	-2520.24
0.1794,0.8206	-2511.14
0.1970,0.8030	-2519.54
0.2007,0.7993	-2507.11
0.1819,0.8181	-2515.56
0.2191,0.7809	-2535.61
0.2395,0.7605	-2539.85
0.1870,0.8130	-2513.90
0.2069,0.7931	-2511.63
0.1856,0.8144	-2521.33
0.2151,0.7849	-2516.20
0.2042,0.7958	-2534.58
0.2456,0.7544	-2527.88
0.1847,0.8153	-2500.59
0.1717,0.8283	-2517.89
0.1897,0.8103	-2518.22
0.2142,0.7858	-2523.93
0.2071,0.7929	-2525.07
0.2446,0.7554	-2539.02
0.2129,0.7871	-2535.65
0.1813,0.8187	-2517.10
0.1969,0.8031	-2506.88
0.2120,0.7880	-2498.91
0.1957,0.8043	-2515.30
0.2034,0.7966	-2520.96
0.2217,0.7783	-2529.36
0.1951,0.8049	-2512.46
0.1542,0.8458	-2496.81
0.2169,0.7831	-2534.33
0.1951,0.8049	-2513.88
0.2125,0.7875	-2529.11
0.1968,0.8032	-2501.26
0.2054,0.7946	-2508.82
0.1578,0.8422	-2514.90
0.1827,0.8173	-2515.53
0.1811,0.8189	-2494.48
