#isoforms=['ENSG00000101294.SE.1.A.up_ENSG00000101294.SE.1.A.SE1_ENSG00000101294.SE.1.A.dn','ENSG00000101294.SE.1.B.up_ENSG00000101294.SE.1.B.dn']	exon_lens=('ENSG00000101294.SE.1.A.up',99),('ENSG00000101294.SE.1.A.SE1',376),('ENSG00000101294.SE.1.A.dn',89),('ENSG00000101294.SE.1.B.up',99),('ENSG00000101294.SE.1.B.dn',89)	iters=5000	burn_in=500	lag=10	percent_accept=84.00	proposal_type=drift	counts=(0,0):360,(1,0):153,(1,1):253	assigned_counts=0:228,1:178	chrom=chr20	strand=+	mRNA_starts=31527484,31527484	mRNA_ends=31545035,31545035
sampled_psi	log_score
0.2126,0.7874	-2587.63
0.2724,0.7276	-2610.42
0.2880,0.7120	-2602.11
0.2960,0.7040	-2609.53
0.2542,0.7458	-2590.97
0.2631,0.7369	-2597.42
0.2460,0.7540	-2589.78
0.2361,0.7639	-2568.79
0.3313,0.6687	-2612.61
0.2581,0.7419	-2593.17
0.2623,0.7377	-2599.48
0.2222,0.7778	-2593.16
0.2595,0.7405	-2596.35
0.2206,0.7794	-2581.94
0.3112,0.6888	-2611.05
0.2485,0.7515	-2579.84
0.2215,0.7785	-2584.42
0.2422,0.7578	-2589.80
0.2614,0.7386	-2600.52
0.2216,0.7784	-2563.06
0.3041,0.6959	-2609.85
0.2497,0.7503	-2603.01
0.2060,0.7940	-2577.55
0.2618,0.7382	-2595.34
0.2620,0.7380	-2609.84
0.2051,0.7949	-2574.91
0.3001,0.6999	-2608.83
0.2751,0.7249	-2603.56
0.2033,0.7967	-2592.79
0.2479,0.7521	-2587.57
0.2416,0.7584	-2590.95
0.2282,0.7718	-2582.94
0.2903,0.7097	-2603.13
0.3109,0.6891	-2612.62
0.2144,0.7856	-2575.78
0.2567,0.7433	-2587.83
0.2289,0.7711	-2584.14
0.2631,0.7369	-2573.74
0.2613,0.7387	-2597.41
0.3132,0.6868	-2614.31
0.1992,0.8008	-2568.41
0.2653,0.7347	-2594.40
0.2672,0.7328	-2591.44
0.2358,0.7642	-2593.46
0.2398,0.7602	-2599.06
0.3038,0.6962	-2603.20
0.1649,0.8351	-2563.48
0.2633,0.7367	-2590.23
0.2521,0.7479	-2587.67
0.2628,0.7372	-2581.95
0.2430,0.7570	-2590.93
0.2957,0.7043	-2603.44
0.1740,0.8260	-2552.65
0.2363,0.7637	-2578.18
0.2630,0.7370	-2587.11
0.2675,0.7325	-2591.46
0.2539,0.7461	-2588.81
0.3037,0.6963	-2601.53
0.1641,0.8359	-2566.90
0.2301,0.7699	-2580.49
0.2395,0.7605	-2586.37
0.2518,0.7482	-2598.55
0.2639,0.7361	-2600.51
0.2551,0.7449	-2597.41
0.1994,0.8006	-2587.86
0.2427,0.7573	-2592.07
0.2687,0.7313	-2588.52
0.2639,0.7361	-2607.69
0.2521,0.7479	-2602.89
0.2609,0.7391	-2601.57
0.2142,0.7858	-2584.89
0.2147,0.7853	-2577.06
0.2299,0.7701	-2575.66
0.2342,0.7658	-2607.75
0.2447,0.7553	-2603.31
0.2597,0.7403	-2598.45
0.1860,0.8140	-2560.71
0.1988,0.8012	-2569.83
0.2054,0.7946	-2577.60
0.2150,0.7850	-2574.46
0.2064,0.7936	-2578.87
0.2593,0.7407	-2578.51
0.2309,0.7691	-2584.10
0.2009,0.7991	-2571.08
0.2385,0.7615	-2575.93
0.2035,0.7965	-2579.11
0.2113,0.7887	-2566.68
0.2515,0.7485	-2595.29
0.2278,0.7722	-2570.74
0.2174,0.7826	-2564.16
0.2370,0.7630	-2587.56
0.2442,0.7558	-2590.92
0.2350,0.7650	-2575.79
0.2385,0.7615	-2585.22
0.2458,0.7542	-2589.78
0.2038,0.7962	-2584.54
0.2359,0.7641	-2586.40
0.2364,0.7636	-2582.88
0.2235,0.7765	-2595.54
0.2319,0.7681	-2580.49
0.2177,0.7823	-2579.52
0.2026,0.7974	-2575.09
0.2960,0.7040	-2606.06
0.2514,0.7486	-2602.93
0.2294,0.7706	-2590.19
0.2463,0.7537	-2588.67
0.2180,0.7820	-2582.06
0.2404,0.7596	-2587.52
0.2729,0.7271	-2603.54
0.2534,0.7466	-2590.95
0.2651,0.7349	-2586.24
0.2402,0.7598	-2576.01
0.2349,0.7651	-2595.86
0.2359,0.7641	-2593.45
0.2819,0.7181	-2615.86
0.2532,0.7468	-2595.28
0.2489,0.7511	-2588.70
0.2003,0.7997	-2572.50
0.2499,0.7501	-2604.10
0.2570,0.7430	-2588.91
0.2551,0.7449	-2607.06
0.2472,0.7528	-2583.11
0.2523,0.7477	-2586.59
0.2166,0.7834	-2597.57
0.2537,0.7463	-2590.96
0.2859,0.7141	-2616.65
0.2861,0.7139	-2609.33
0.2444,0.7556	-2596.56
0.2355,0.7645	-2574.63
0.2144,0.7856	-2584.87
0.2487,0.7513	-2596.43
0.3202,0.6798	-2602.62
0.2932,0.7068	-2612.97
0.2385,0.7615	-2578.25
0.2336,0.7664	-2601.88
0.2463,0.7537	-2594.26
0.2395,0.7605	-2594.46
0.2846,0.7154	-2599.18
0.2853,0.7147	-2589.12
0.2640,0.7360	-2600.51
0.2314,0.7686	-2592.49
0.2642,0.7358	-2604.61
0.2303,0.7697	-2582.91
0.3100,0.6900	-2608.58
0.2465,0.7535	-2592.02
0.2683,0.7317	-2589.50
0.2125,0.7875	-2565.37
0.2866,0.7134	-2608.42
0.2695,0.7305	-2596.56
0.2783,0.7217	-2592.18
0.2382,0.7618	-2600.33
0.2572,0.7428	-2597.40
0.2380,0.7620	-2584.05
0.3043,0.6957	-2612.34
0.2530,0.7470	-2594.19
0.2906,0.7094	-2608.50
0.2976,0.7024	-2605.29
0.2762,0.7238	-2588.16
0.2268,0.7732	-2594.01
0.3074,0.6926	-2613.27
0.2344,0.7656	-2589.98
0.2778,0.7222	-2600.74
0.2601,0.7399	-2591.13
0.2809,0.7191	-2599.92
0.2435,0.7565	-2581.86
0.3156,0.6844	-2612.87
0.2477,0.7523	-2588.68
0.2360,0.7640	-2572.30
0.2395,0.7605	-2582.91
0.2603,0.7397	-2593.22
0.2481,0.7519	-2592.01
0.2864,0.7136	-2605.68
0.2551,0.7449	-2596.34
0.2541,0.7459	-2589.89
0.2941,0.7059	-2596.34
0.2645,0.7355	-2602.56
0.2508,0.7492	-2582.16
0.2878,0.7122	-2608.44
0.2996,0.7004	-2598.62
0.2578,0.7422	-2589.99
0.2739,0.7261	-2599.65
0.2520,0.7480	-2577.88
0.2236,0.7764	-2589.30
0.2386,0.7614	-2579.41
0.2752,0.7248	-2600.66
0.2502,0.7498	-2599.69
0.2390,0.7610	-2596.80
0.2527,0.7473	-2594.19
0.2317,0.7683	-2587.68
0.2570,0.7430	-2602.71
0.2406,0.7594	-2585.22
0.2654,0.7346	-2594.40
0.2245,0.7755	-2586.76
0.2526,0.7474	-2594.19
0.2531,0.7469	-2594.19
0.2632,0.7368	-2592.28
0.2581,0.7419	-2601.62
0.2643,0.7357	-2600.51
0.2769,0.7231	-2593.99
0.2567,0.7433	-2586.77
0.2388,0.7612	-2585.22
0.2654,0.7346	-2596.44
0.2719,0.7281	-2610.43
0.3027,0.6973	-2614.79
0.2909,0.7091	-2597.81
0.2166,0.7834	-2583.43
0.2376,0.7624	-2584.05
0.2669,0.7331	-2590.42
0.2335,0.7665	-2584.06
0.2560,0.7440	-2599.54
0.2587,0.7413	-2593.19
0.2389,0.7611	-2586.38
0.2346,0.7654	-2579.33
0.2903,0.7097	-2594.19
0.2459,0.7541	-2579.70
0.2322,0.7678	-2582.88
0.2625,0.7375	-2591.22
0.2311,0.7689	-2582.89
0.2092,0.7908	-2572.02
0.2608,0.7392	-2596.36
0.2513,0.7487	-2595.29
0.2412,0.7588	-2594.40
0.2384,0.7616	-2584.05
0.2714,0.7286	-2590.70
0.2137,0.7863	-2587.52
0.2547,0.7453	-2590.98
0.2057,0.7943	-2578.93
0.2338,0.7662	-2581.69
0.2208,0.7792	-2579.41
0.2410,0.7590	-2585.23
0.2335,0.7665	-2585.25
0.2337,0.7663	-2587.63
0.2196,0.7804	-2576.91
0.2566,0.7434	-2591.02
0.2155,0.7845	-2593.83
0.2189,0.7811	-2598.56
0.2355,0.7645	-2580.52
0.2300,0.7700	-2594.99
0.2792,0.7208	-2588.46
0.2545,0.7455	-2587.75
0.2450,0.7550	-2594.29
0.2603,0.7397	-2592.18
0.2344,0.7656	-2581.69
0.2405,0.7595	-2585.22
0.2891,0.7109	-2603.97
0.2672,0.7328	-2614.64
0.2483,0.7517	-2601.98
0.2266,0.7734	-2579.30
0.2189,0.7811	-2576.93
0.2638,0.7362	-2597.43
0.2655,0.7345	-2596.44
0.2555,0.7445	-2593.13
0.2354,0.7646	-2584.05
0.2212,0.7788	-2584.44
0.2608,0.7392	-2593.23
0.2560,0.7440	-2592.07
0.2408,0.7592	-2593.26
0.2791,0.7209	-2589.39
0.2625,0.7375	-2602.58
0.2538,0.7462	-2587.73
0.2466,0.7534	-2607.66
0.2809,0.7191	-2597.10
0.2261,0.7739	-2571.92
0.2411,0.7589	-2577.20
0.2594,0.7406	-2601.59
0.2377,0.7623	-2578.23
0.2410,0.7590	-2592.11
0.2491,0.7509	-2584.29
0.2251,0.7749	-2591.68
0.2337,0.7663	-2594.75
0.2715,0.7285	-2578.86
0.2521,0.7479	-2603.98
0.2793,0.7207	-2603.64
0.2118,0.7882	-2592.96
0.2788,0.7212	-2603.62
0.2342,0.7658	-2594.72
0.2531,0.7469	-2603.94
0.2644,0.7356	-2586.18
0.2584,0.7416	-2584.75
0.2515,0.7485	-2593.11
0.2541,0.7459	-2588.81
0.2331,0.7669	-2590.02
0.2238,0.7762	-2590.53
0.2931,0.7069	-2602.40
0.2692,0.7308	-2595.55
0.2923,0.7077	-2595.28
0.2580,0.7420	-2586.83
0.2470,0.7530	-2590.90
0.2231,0.7769	-2583.10
0.2489,0.7511	-2603.06
0.2677,0.7323	-2603.54
0.3307,0.6693	-2605.50
0.2529,0.7471	-2589.86
0.2775,0.7225	-2605.51
0.2200,0.7800	-2592.09
0.2322,0.7678	-2593.65
0.2676,0.7324	-2596.50
0.3145,0.6855	-2605.02
0.2180,0.7820	-2575.67
0.2418,0.7582	-2593.23
0.2501,0.7499	-2579.93
0.2409,0.7591	-2609.33
0.2748,0.7252	-2598.71
0.3010,0.6990	-2591.18
0.2090,0.7910	-2589.33
0.2128,0.7872	-2588.92
0.2646,0.7354	-2582.11
0.2328,0.7672	-2585.26
0.2726,0.7274	-2592.74
0.3131,0.6869	-2601.73
0.2071,0.7929	-2574.79
0.2240,0.7760	-2585.55
0.2394,0.7606	-2584.06
0.2039,0.7961	-2569.55
0.2516,0.7484	-2595.29
0.2791,0.7209	-2598.89
0.2516,0.7484	-2584.38
0.2434,0.7566	-2580.72
0.2279,0.7721	-2569.53
0.2110,0.7890	-2562.73
0.2407,0.7593	-2582.93
0.2421,0.7579	-2589.80
0.2175,0.7825	-2578.25
0.2345,0.7655	-2592.34
0.2466,0.7534	-2596.49
0.1968,0.8032	-2592.48
0.2384,0.7616	-2578.25
0.2382,0.7618	-2592.19
0.2304,0.7696	-2574.46
0.2393,0.7607	-2596.79
0.2159,0.7841	-2580.89
0.2065,0.7935	-2582.90
0.2368,0.7632	-2578.20
0.2501,0.7499	-2615.07
0.2224,0.7776	-2583.12
0.2179,0.7821	-2589.73
0.2101,0.7899	-2586.56
0.2343,0.7657	-2600.64
0.2754,0.7246	-2608.40
0.2574,0.7426	-2584.69
0.2264,0.7736	-2571.93
0.2466,0.7534	-2586.43
0.2410,0.7590	-2593.26
0.2305,0.7695	-2582.90
0.2501,0.7499	-2606.29
0.2615,0.7385	-2607.79
0.2502,0.7498	-2589.81
0.2854,0.7146	-2599.23
0.2488,0.7512	-2579.85
0.2697,0.7303	-2605.53
0.2674,0.7326	-2579.36
0.2739,0.7261	-2586.98
0.2409,0.7591	-2597.85
0.2751,0.7249	-2584.19
0.2464,0.7536	-2598.73
0.2794,0.7206	-2594.16
0.2369,0.7631	-2584.05
0.2776,0.7224	-2599.78
0.2210,0.7790	-2588.22
0.2696,0.7304	-2584.60
0.2528,0.7472	-2589.86
0.2709,0.7291	-2609.47
0.2245,0.7755	-2574.37
0.2770,0.7230	-2596.88
0.2496,0.7504	-2583.20
0.2835,0.7165	-2607.46
0.2308,0.7692	-2591.33
0.2783,0.7217	-2604.57
0.2515,0.7485	-2577.84
0.2304,0.7696	-2567.22
0.2254,0.7746	-2590.43
0.2526,0.7474	-2598.53
0.2547,0.7453	-2589.90
0.2833,0.7167	-2600.96
0.2533,0.7467	-2607.17
0.2359,0.7641	-2582.88
0.2265,0.7735	-2582.98
0.2368,0.7632	-2589.90
0.3003,0.6997	-2609.68
0.2624,0.7376	-2594.31
0.2560,0.7440	-2601.68
0.2209,0.7791	-2573.11
0.2593,0.7407	-2590.05
0.2321,0.7679	-2592.46
0.2689,0.7311	-2588.53
0.2483,0.7517	-2580.93
0.2650,0.7350	-2593.37
0.2252,0.7748	-2579.32
0.2596,0.7404	-2599.49
0.2446,0.7554	-2579.64
0.2355,0.7645	-2592.30
0.2852,0.7148	-2590.03
0.2271,0.7729	-2582.97
0.2590,0.7410	-2578.48
0.2880,0.7120	-2602.11
0.2406,0.7594	-2589.82
0.2352,0.7648	-2581.69
0.2813,0.7187	-2598.06
0.2460,0.7540	-2599.87
0.2478,0.7522	-2596.45
0.2561,0.7439	-2579.28
0.2530,0.7470	-2593.11
0.2481,0.7519	-2580.92
0.2797,0.7203	-2602.70
0.2459,0.7541	-2594.27
0.2614,0.7386	-2587.02
0.2169,0.7831	-2596.24
0.2937,0.7063	-2591.91
0.2740,0.7260	-2593.81
0.2395,0.7605	-2575.98
0.2333,0.7667	-2586.45
0.2262,0.7738	-2591.60
0.2141,0.7859	-2571.89
0.2726,0.7274	-2596.67
0.2545,0.7455	-2606.02
0.2214,0.7786	-2593.23
0.2738,0.7262	-2592.82
0.2240,0.7760	-2578.09
0.2525,0.7475	-2584.43
0.2353,0.7647	-2600.55
0.2503,0.7497	-2588.72
0.2430,0.7570	-2604.57
0.2901,0.7099	-2606.70
0.2354,0.7646	-2582.87
0.2387,0.7613	-2593.34
0.2667,0.7333	-2606.59
0.2282,0.7718	-2578.07
0.2297,0.7703	-2587.76
0.2915,0.7085	-2606.75
0.2234,0.7766	-2583.09
0.2384,0.7616	-2586.38
0.2920,0.7080	-2598.79
0.2502,0.7498	-2581.04
0.2349,0.7651	-2576.97
0.2774,0.7226	-2594.98
0.2367,0.7633	-2571.17
0.2352,0.7648	-2585.23
0.2472,0.7528	-2595.36
0.2302,0.7698	-2592.56
0.2584,0.7416	-2600.56
0.3181,0.6819	-2620.65
0.2348,0.7652	-2601.77
0.2504,0.7496	-2601.88
0.2449,0.7551	-2589.78
0.2080,0.7920	-2592.13
0.2676,0.7324	-2601.53
0.2867,0.7133	-2611.16
0.2629,0.7371	-2588.14
0.2598,0.7402	-2582.74
0.1936,0.8064	-2567.38
0.2032,0.7968	-2575.04
0.2460,0.7540	-2592.02
0.2431,0.7569	-2590.93
0.2525,0.7475	-2599.62
0.2452,0.7548	-2595.41
0.2256,0.7744	-2566.98
0.2558,0.7442	-2598.48
0.2542,0.7458	-2589.89
0.2592,0.7408	-2597.40
0.2716,0.7284	-2605.51
0.2605,0.7395	-2596.36
0.2002,0.7998	-2573.90
0.2087,0.7913	-2568.04
0.2176,0.7824	-2580.80
0.2559,0.7441	-2593.14
0.2747,0.7253	-2595.79
0.2598,0.7402	-2590.07
0.2167,0.7833	-2596.26
0.2278,0.7722	-2582.95
0.2264,0.7736	-2579.30
0.1962,0.8038	-2568.60
0.2549,0.7451	-2596.34
0.2456,0.7544	-2587.54
0.2278,0.7722	-2590.28
0.2260,0.7740	-2592.84
0.2374,0.7626	-2584.05
0.1848,0.8152	-2586.04
0.2219,0.7781	-2569.34
0.2731,0.7269	-2588.86
0.2338,0.7662	-2563.88
0.2139,0.7861	-2575.80
0.2302,0.7698	-2585.32
0.2059,0.7941	-2580.26
0.2400,0.7600	-2581.76
0.2587,0.7413	-2601.61
0.2359,0.7641	-2579.35
0.2115,0.7885	-2589.05
0.2523,0.7477	-2594.19
0.2564,0.7436	-2595.27
0.2674,0.7326	-2594.47
0.2474,0.7526	-2590.90
0.2427,0.7573	-2582.97
0.2418,0.7582	-2577.23
0.2463,0.7537	-2594.26
0.2199,0.7801	-2575.64
0.2650,0.7350	-2592.35
0.2608,0.7392	-2595.32
0.2481,0.7519	-2597.55
0.2340,0.7660	-2579.32
0.2510,0.7490	-2588.73
0.2164,0.7836	-2589.87
0.2313,0.7687	-2588.90
0.2568,0.7432	-2592.09
0.2509,0.7491	-2590.92
0.2345,0.7655	-2584.06
0.2366,0.7634	-2580.54
0.2416,0.7584	-2586.38
0.2378,0.7622	-2596.87
0.2623,0.7377	-2588.11
0.2520,0.7480	-2581.14
0.2710,0.7290	-2600.57
0.2561,0.7439	-2578.21
0.2540,0.7460	-2590.96
0.2460,0.7540	-2581.94
0.2596,0.7404	-2592.16
0.2451,0.7549	-2592.03
0.2628,0.7372	-2592.26
0.2814,0.7186	-2603.69
0.2430,0.7570	-2581.84
0.2541,0.7459	-2582.35
0.2612,0.7388	-2584.93
0.2167,0.7833	-2589.84
0.2425,0.7575	-2590.94
0.3106,0.6894	-2615.00
0.2669,0.7331	-2597.49
0.2648,0.7352	-2598.47
0.2628,0.7372	-2586.07
0.2360,0.7640	-2594.62
0.2768,0.7232	-2607.43
0.2812,0.7188	-2609.31
0.2637,0.7363	-2607.70
0.2863,0.7137	-2606.59
0.2212,0.7788	-2579.40
0.2216,0.7784	-2581.90
0.3122,0.6878	-2603.99
0.2678,0.7322	-2596.50
0.2409,0.7591	-2588.67
0.3003,0.6997	-2608.84
0.2602,0.7398	-2604.71
0.2289,0.7711	-2584.14
0.3232,0.6768	-2602.27
0.2688,0.7312	-2597.53
0.2123,0.7877	-2567.99
0.2882,0.7118	-2606.64
0.2511,0.7489	-2609.50
0.2450,0.7550	-2587.53
0.3044,0.6956	-2611.52
0.2607,0.7393	-2596.36
0.2201,0.7799	-2585.76
0.2819,0.7181	-2599.96
0.2665,0.7335	-2585.33
0.2467,0.7533	-2577.50
0.2843,0.7157	-2598.24
0.2708,0.7292	-2604.53
0.2549,0.7451	-2595.27
0.2778,0.7222	-2602.65
0.2633,0.7367	-2593.31
0.2402,0.7598	-2586.37
0.2629,0.7371	-2586.08
0.2543,0.7457	-2594.20
0.2456,0.7544	-2590.91
0.2953,0.7047	-2593.85
0.2345,0.7655	-2591.16
0.2199,0.7801	-2580.71
0.2482,0.7518	-2598.66
0.2585,0.7415	-2585.80
0.2391,0.7609	-2599.11
0.2549,0.7451	-2590.98
0.2816,0.7184	-2590.59
0.2550,0.7450	-2586.69
0.2429,0.7571	-2588.66
0.2554,0.7446	-2589.92
0.2499,0.7501	-2590.91
0.2511,0.7489	-2598.57
0.2649,0.7351	-2586.22
0.2606,0.7394	-2606.79
0.2301,0.7699	-2575.66
0.2464,0.7536	-2596.49
0.2383,0.7617	-2585.22
0.2668,0.7332	-2600.52
0.2961,0.7039	-2617.33
0.2543,0.7457	-2585.59
0.2465,0.7535	-2597.61
0.2615,0.7385	-2602.60
0.2523,0.7477	-2599.63
0.2566,0.7434	-2585.70
0.2779,0.7221	-2607.43
0.2759,0.7241	-2595.85
0.2778,0.7222	-2587.36
0.2654,0.7346	-2598.48
0.2319,0.7681	-2580.49
0.2515,0.7485	-2593.11
0.2690,0.7310	-2593.54
0.2822,0.7178	-2593.44
0.2499,0.7501	-2608.49
0.2333,0.7667	-2573.36
0.2667,0.7333	-2597.48
0.2370,0.7630	-2584.05
0.2672,0.7328	-2596.49
0.2477,0.7523	-2593.12
0.2634,0.7366	-2599.48
0.2371,0.7629	-2577.04
0.2655,0.7345	-2596.44
0.2727,0.7273	-2607.47
0.2784,0.7216	-2596.95
0.2290,0.7710	-2588.99
0.2640,0.7360	-2592.31
0.2574,0.7426	-2584.68
0.2538,0.7462	-2588.80
0.2752,0.7248	-2590.97
0.2541,0.7459	-2597.43
0.2465,0.7535	-2595.37
0.2568,0.7432	-2587.84
0.2462,0.7538	-2584.19
0.2535,0.7465	-2587.72
0.2547,0.7453	-2599.57
0.2483,0.7517	-2584.26
0.2047,0.7953	-2572.23
0.2494,0.7506	-2579.89
0.2475,0.7525	-2584.23
0.2971,0.7029	-2590.62
0.2639,0.7361	-2590.25
0.2601,0.7399	-2613.08
0.2247,0.7753	-2583.04
0.2398,0.7602	-2580.60
0.2610,0.7390	-2600.53
0.2862,0.7138	-2601.10
0.2814,0.7186	-2599.94
0.2697,0.7303	-2594.57
0.2341,0.7659	-2584.06
0.2783,0.7217	-2595.99
0.2343,0.7657	-2582.87
0.2693,0.7307	-2588.56
0.3042,0.6958	-2609.86
0.2669,0.7331	-2594.46
0.2553,0.7447	-2593.13
0.2990,0.7010	-2613.89
0.2238,0.7762	-2583.07
0.2626,0.7374	-2600.51
0.2644,0.7356	-2587.21
0.2631,0.7369	-2594.33
0.2586,0.7414	-2601.61
0.2738,0.7262	-2604.53
0.2185,0.7815	-2580.76
0.2761,0.7239	-2600.69
0.2153,0.7847	-2582.21
0.2806,0.7194	-2586.72
0.2707,0.7293	-2600.56
0.2713,0.7287	-2593.66
0.2319,0.7681	-2580.49
0.3183,0.6817	-2609.98
0.2081,0.7919	-2570.73
0.2518,0.7482	-2585.48
0.2838,0.7162	-2590.80
0.2734,0.7266	-2601.59
0.2516,0.7484	-2601.83
0.2948,0.7052	-2616.47
0.1985,0.8015	-2579.62
0.2603,0.7397	-2588.00
0.2787,0.7213	-2603.62
0.3034,0.6966	-2618.13
0.1907,0.8093	-2593.64
0.2326,0.7674	-2582.88
0.2133,0.7867	-2587.57
0.2327,0.7673	-2581.69
0.2434,0.7566	-2589.79
0.2265,0.7735	-2579.30
0.1734,0.8266	-2577.70
0.2193,0.7807	-2588.35
0.2739,0.7261	-2595.75
0.2367,0.7633	-2579.37
0.2258,0.7742	-2574.38
0.2329,0.7671	-2585.26
0.2014,0.7986	-2575.19
0.2524,0.7476	-2582.25
0.2837,0.7163	-2615.80
0.2099,0.7901	-2572.00
0.2198,0.7802	-2576.91
0.2332,0.7668	-2606.68
0.2442,0.7558	-2584.14
0.2553,0.7447	-2596.34
0.2490,0.7510	-2595.32
0.2422,0.7578	-2578.39
0.1921,0.8079	-2586.18
0.2274,0.7726	-2573.18
0.2276,0.7724	-2586.62
0.2551,0.7449	-2586.70
0.2123,0.7877	-2578.48
0.2477,0.7523	-2582.01
0.2196,0.7804	-2570.57
0.2140,0.7860	-2590.11
0.2514,0.7486	-2589.83
0.2590,0.7410	-2602.65
0.2414,0.7586	-2592.10
0.2271,0.7729	-2571.94
0.2070,0.7930	-2578.83
0.2428,0.7572	-2585.25
0.2804,0.7196	-2593.29
0.2339,0.7661	-2574.57
0.2378,0.7622	-2591.04
0.2452,0.7548	-2595.41
0.2232,0.7768	-2583.09
0.2522,0.7478	-2605.07
0.2667,0.7333	-2600.52
0.2259,0.7741	-2583.00
0.2572,0.7428	-2594.22
0.2078,0.7922	-2581.45
0.2332,0.7668	-2586.45
0.2635,0.7365	-2587.15
0.2592,0.7408	-2593.20
0.2377,0.7623	-2584.05
0.2302,0.7698	-2590.15
0.2679,0.7321	-2593.49
0.2477,0.7523	-2579.79
0.2647,0.7353	-2589.27
0.2591,0.7409	-2604.75
0.2199,0.7801	-2588.31
0.2442,0.7558	-2596.57
0.2825,0.7175	-2588.81
0.2423,0.7577	-2593.22
0.2468,0.7532	-2578.63
0.2400,0.7600	-2582.92
0.2459,0.7541	-2580.82
0.2589,0.7411	-2591.09
0.3052,0.6948	-2607.44
0.2433,0.7567	-2576.18
0.3178,0.6822	-2611.48
0.2344,0.7656	-2598.26
0.2600,0.7400	-2594.26
0.2796,0.7204	-2596.07
0.2797,0.7203	-2584.73
0.2455,0.7545	-2587.54
0.3466,0.6534	-2611.75
0.2670,0.7330	-2597.49
0.2186,0.7814	-2583.31
0.2491,0.7509	-2592.01
0.2536,0.7464	-2586.64
0.2272,0.7728	-2586.64
0.3615,0.6385	-2627.10
0.2529,0.7471	-2590.94
0.2391,0.7609	-2587.53
0.2574,0.7426	-2593.16
0.2622,0.7378	-2595.34
0.2710,0.7290	-2608.48
0.3302,0.6698	-2612.51
0.2709,0.7291	-2601.56
0.2515,0.7485	-2590.92
0.2206,0.7794	-2583.20
0.2420,0.7580	-2580.67
0.2649,0.7351	-2600.51
0.3159,0.6841	-2608.25
0.2647,0.7353	-2587.23
0.2456,0.7544	-2578.56
0.2273,0.7727	-2590.31
0.2430,0.7570	-2589.79
0.2814,0.7186	-2608.38
0.2847,0.7153	-2602.87
0.2541,0.7459	-2580.19
0.2372,0.7628	-2595.73
0.2314,0.7686	-2568.49
0.2607,0.7393	-2598.44
0.3230,0.6770	-2625.93
0.2864,0.7136	-2598.38
0.2533,0.7467	-2603.92
0.2286,0.7714	-2582.94
0.2303,0.7697	-2585.32
0.2713,0.7287	-2597.61
0.2841,0.7159	-2599.15
0.2853,0.7147	-2596.47
0.2783,0.7217	-2593.13
0.2754,0.7246	-2615.17
0.2749,0.7251	-2597.74
0.2603,0.7397	-2599.49
0.2667,0.7333	-2597.48
0.2615,0.7385	-2589.10
0.2378,0.7622	-2586.38
0.2684,0.7316	-2602.54
0.2735,0.7265	-2595.73
0.2064,0.7936	-2573.48
0.2197,0.7803	-2581.98
0.2545,0.7455	-2600.65
0.2157,0.7843	-2574.45
0.2972,0.7028	-2602.68
0.2421,0.7579	-2603.50
0.2516,0.7484	-2598.56
0.2046,0.7954	-2589.89
0.2368,0.7632	-2596.92
0.2128,0.7872	-2575.84
0.2621,0.7379	-2598.45
0.2901,0.7099	-2612.07
0.2515,0.7485	-2581.11
0.2081,0.7919	-2576.07
0.2331,0.7669	-2584.07
0.2253,0.7747	-2578.08
0.2376,0.7624	-2591.05
0.2675,0.7325	-2598.51
0.2472,0.7528	-2584.22
0.1965,0.8035	-2572.81
0.2358,0.7642	-2585.23
0.2302,0.7698	-2591.36
0.2341,0.7659	-2595.91
0.3068,0.6932	-2602.66
0.2217,0.7783	-2585.67
0.2045,0.7955	-2568.16
0.2247,0.7753	-2590.47
0.2223,0.7777	-2596.90
0.2452,0.7548	-2596.53
0.2807,0.7193	-2602.73
0.2212,0.7788	-2590.73
0.1887,0.8113	-2572.18
0.2413,0.7587	-2588.67
0.2104,0.7896	-2582.56
0.2127,0.7873	-2565.37
0.2776,0.7224	-2591.17
0.2221,0.7779	-2581.88
0.2272,0.7728	-2592.76
0.2519,0.7481	-2590.93
0.2021,0.7979	-2590.23
0.2193,0.7807	-2588.35
0.2605,0.7395	-2593.23
0.2279,0.7721	-2580.51
0.3006,0.6994	-2598.72
0.2629,0.7371	-2591.24
0.2066,0.7934	-2589.62
0.2292,0.7708	-2565.95
0.2443,0.7557	-2595.43
0.2959,0.7041	-2607.79
0.2729,0.7271	-2605.50
0.2511,0.7489	-2585.46
0.2486,0.7514	-2595.33
0.2789,0.7211	-2604.58
0.2443,0.7557	-2575.11
0.2947,0.7053	-2598.15
0.2162,0.7838	-2583.45
0.2563,0.7437	-2597.40
0.2237,0.7763	-2578.10
0.2631,0.7369	-2591.24
0.2256,0.7744	-2581.78
0.2897,0.7103	-2600.41
0.2387,0.7613	-2600.29
0.2299,0.7701	-2574.45
0.2034,0.7966	-2596.87
0.2863,0.7137	-2602.94
0.2599,0.7401	-2582.75
0.2641,0.7359	-2599.49
0.2495,0.7505	-2592.01
0.2320,0.7680	-2590.07
0.2380,0.7620	-2581.73
0.2277,0.7723	-2574.40
0.2665,0.7335	-2597.48
0.2789,0.7211	-2592.22
0.2621,0.7379	-2593.27
0.2512,0.7488	-2584.37
0.2297,0.7703	-2586.55
0.2359,0.7641	-2585.23
0.2414,0.7586	-2594.39
0.2945,0.7055	-2616.47
0.2766,0.7234	-2592.05
0.2218,0.7782	-2584.41
0.2334,0.7666	-2584.07
0.2413,0.7587	-2581.79
0.2488,0.7512	-2589.80
0.2645,0.7355	-2595.40
0.2502,0.7498	-2599.69
0.2298,0.7702	-2603.47
0.2424,0.7576	-2589.80
0.2326,0.7674	-2587.65
0.2271,0.7729	-2576.84
0.2468,0.7532	-2583.09
0.2443,0.7557	-2580.75
0.2451,0.7549	-2594.28
0.2404,0.7596	-2594.43
0.2388,0.7612	-2577.10
0.2234,0.7766	-2575.61
0.2758,0.7242	-2591.02
0.2619,0.7381	-2591.19
0.2585,0.7415	-2593.18
0.2233,0.7767	-2569.38
0.2420,0.7580	-2592.09
0.2148,0.7852	-2587.43
0.2641,0.7359	-2597.44
0.2307,0.7693	-2587.72
0.2550,0.7450	-2581.33
0.2360,0.7640	-2586.40
0.2657,0.7343	-2604.58
0.2205,0.7795	-2583.21
0.2816,0.7184	-2602.76
0.2358,0.7642	-2594.63
0.2902,0.7098	-2601.33
0.2303,0.7697	-2592.56
0.2938,0.7062	-2590.17
0.1997,0.8003	-2589.20
0.2998,0.7002	-2611.36
0.2592,0.7408	-2596.35
0.2746,0.7254	-2603.56
0.2500,0.7500	-2598.60
0.2739,0.7261	-2608.42
0.2251,0.7749	-2591.68
0.2964,0.7036	-2612.13
0.2712,0.7288	-2590.69
0.2719,0.7281	-2602.55
0.2674,0.7326	-2588.43
0.2488,0.7512	-2597.53
0.2300,0.7700	-2581.70
0.2928,0.7072	-2604.15
0.2574,0.7426	-2596.34
0.2644,0.7356	-2593.35
0.2293,0.7707	-2586.56
0.2493,0.7507	-2578.78
0.2194,0.7806	-2581.99
0.2696,0.7304	-2601.54
0.2757,0.7243	-2584.25
0.2563,0.7437	-2597.40
0.2817,0.7183	-2600.89
0.2266,0.7734	-2582.98
0.2398,0.7602	-2579.45
0.2766,0.7234	-2598.78
0.2912,0.7088	-2597.84
0.2508,0.7492	-2596.39
0.2524,0.7476	-2592.02
0.2789,0.7211	-2601.73
0.2596,0.7404	-2595.30
0.2421,0.7579	-2597.79
0.2812,0.7188	-2608.37
0.2449,0.7551	-2593.16
0.2768,0.7232	-2593.98
0.2410,0.7590	-2601.29
0.2472,0.7528	-2586.45
0.2110,0.7890	-2568.01
0.2883,0.7117	-2604.83
0.2463,0.7537	-2580.84
0.2553,0.7447	-2585.63
0.2448,0.7552	-2586.41
0.2586,0.7414	-2599.50
0.2504,0.7496	-2587.62
0.2438,0.7562	-2588.66
0.2166,0.7834	-2577.00
0.2520,0.7480	-2600.72
0.2419,0.7581	-2610.36
0.2538,0.7462	-2588.80
0.2352,0.7648	-2585.23
0.2487,0.7513	-2579.85
0.2058,0.7942	-2585.68
0.2252,0.7748	-2589.20
0.2206,0.7794	-2581.94
0.2280,0.7720	-2576.85
0.2923,0.7077	-2602.36
0.2391,0.7609	-2579.43
0.2392,0.7608	-2608.36
0.2200,0.7800	-2604.75
0.2513,0.7487	-2587.65
0.2427,0.7573	-2589.80
0.2568,0.7432	-2591.02
0.2368,0.7632	-2578.20
0.2089,0.7911	-2589.34
0.2440,0.7560	-2594.31
0.2390,0.7610	-2582.90
0.2540,0.7460	-2587.73
0.2920,0.7080	-2604.10
0.2457,0.7543	-2578.57
0.2265,0.7735	-2584.21
0.2212,0.7788	-2576.88
0.2938,0.7062	-2605.96
0.2775,0.7225	-2592.12
0.2996,0.7004	-2607.96
0.2312,0.7688	-2591.30
0.2464,0.7536	-2590.90
0.2109,0.7891	-2582.52
0.2432,0.7568	-2602.28
0.2741,0.7259	-2598.68
0.2441,0.7559	-2595.44
0.2427,0.7573	-2587.52
0.2468,0.7532	-2583.09
0.2425,0.7575	-2588.66
0.2741,0.7259	-2611.35
0.2720,0.7280	-2595.66
0.2493,0.7507	-2585.39
0.2494,0.7506	-2601.92
0.2350,0.7650	-2582.87
0.2535,0.7465	-2597.43
0.2648,0.7352	-2597.45
0.2672,0.7328	-2598.50
0.2312,0.7688	-2592.50
0.2648,0.7352	-2587.24
0.2187,0.7813	-2576.94
0.2719,0.7281	-2601.57
0.2525,0.7475	-2583.34
0.2331,0.7669	-2592.41
0.2284,0.7716	-2576.85
0.2529,0.7471	-2595.28
0.2291,0.7709	-2569.58
0.2690,0.7310	-2598.54
0.2258,0.7742	-2574.38
0.2197,0.7803	-2571.84
0.2212,0.7788	-2579.40
0.2259,0.7741	-2589.16
0.2245,0.7755	-2575.61
0.2641,0.7359	-2606.66
0.2299,0.7701	-2575.66
0.2518,0.7482	-2594.20
0.2410,0.7590	-2569.17
0.2315,0.7685	-2590.09
0.2484,0.7516	-2586.47
0.2424,0.7576	-2600.06
0.2623,0.7377	-2598.45
0.2561,0.7439	-2597.41
0.2577,0.7423	-2598.46
0.2860,0.7140	-2602.92
0.2247,0.7753	-2597.90
0.2561,0.7439	-2596.34
0.2529,0.7471	-2605.02
0.2659,0.7341	-2592.39
0.2813,0.7187	-2601.81
0.2816,0.7184	-2613.06
0.2185,0.7815	-2584.59
0.2443,0.7557	-2592.05
0.3017,0.6983	-2589.61
0.2728,0.7272	-2589.82
0.3132,0.6868	-2609.60
0.2715,0.7285	-2597.61
0.2356,0.7644	-2591.11
0.2651,0.7349	-2601.53
0.3210,0.6790	-2602.72
0.2940,0.7060	-2593.70
0.2866,0.7134	-2601.13
0.2512,0.7488	-2593.11
0.2273,0.7727	-2603.77
0.2763,0.7237	-2602.62
0.2938,0.7062	-2609.47
0.2628,0.7372	-2592.26
0.2751,0.7249	-2596.78
0.2729,0.7271	-2588.84
0.2003,0.7997	-2591.89
0.2843,0.7157	-2597.31
0.2483,0.7517	-2598.66
0.2844,0.7156	-2593.63
0.2893,0.7107	-2605.77
0.2567,0.7433	-2597.40
0.2405,0.7595	-2584.07
0.2492,0.7508	-2595.32
0.2437,0.7563	-2584.13
0.2714,0.7286	-2604.52
0.2770,0.7230	-2602.63
0.2287,0.7713	-2590.23
0.2441,0.7559	-2588.66
0.2526,0.7474	-2594.19
0.2433,0.7567	-2581.85
0.2588,0.7412	-2599.50
0.2776,0.7224	-2607.43
0.2596,0.7404	-2593.21
0.2520,0.7480	-2587.67
0.2628,0.7372	-2589.17
0.2490,0.7510	-2579.87
0.2423,0.7577	-2582.96
0.2695,0.7305	-2596.55
0.3024,0.6976	-2615.62
0.2408,0.7592	-2589.82
0.2618,0.7382	-2594.30
0.2081,0.7919	-2590.78
0.2832,0.7168	-2598.17
0.2623,0.7377	-2596.38
0.3051,0.6949	-2615.67
0.2899,0.7101	-2609.38
0.2888,0.7112	-2611.16
0.2156,0.7844	-2573.16
0.2669,0.7331	-2601.53
0.2407,0.7593	-2584.08
0.2586,0.7414	-2596.34
0.2850,0.7150	-2596.45
0.2597,0.7403	-2599.49
0.2199,0.7801	-2575.64
0.2595,0.7405	-2604.74
0.2140,0.7860	-2594.01
0.3201,0.6799	-2610.14
0.2725,0.7275	-2583.90
0.2585,0.7415	-2592.13
0.2145,0.7855	-2582.26
0.2108,0.7892	-2568.01
0.2349,0.7651	-2591.14
0.3279,0.6721	-2614.45
0.2737,0.7263	-2596.72
0.2382,0.7618	-2565.45
0.2336,0.7664	-2573.37
0.2164,0.7836	-2569.28
0.2604,0.7396	-2591.14
0.3135,0.6865	-2610.40
0.2937,0.7063	-2616.48
0.2600,0.7400	-2587.98
0.2543,0.7457	-2596.35
0.2181,0.7819	-2582.06
0.2196,0.7804	-2579.45
0.3130,0.6870	-2611.15
0.2529,0.7471	-2584.44
0.2475,0.7525	-2600.91
0.2262,0.7738	-2580.53
0.2298,0.7702	-2586.54
0.2282,0.7718	-2584.16
0.2907,0.7093	-2599.58
0.2234,0.7766	-2595.54
0.2505,0.7495	-2589.82
0.2494,0.7506	-2607.43
0.2091,0.7909	-2590.65
0.2610,0.7390	-2589.08
0.2482,0.7518	-2593.12
0.2101,0.7899	-2585.23
0.2281,0.7719	-2586.60
0.2769,0.7231	-2594.95
0.2269,0.7731	-2596.46
0.2599,0.7401	-2596.35
0.2424,0.7576	-2594.36
0.1777,0.8223	-2579.90
0.2600,0.7400	-2586.94
0.2789,0.7211	-2596.03
0.2272,0.7728	-2581.74
0.2788,0.7212	-2590.32
0.2843,0.7157	-2604.70
0.1979,0.8021	-2569.89
0.2491,0.7509	-2593.11
0.2367,0.7633	-2602.78
0.2584,0.7416	-2600.56
0.2809,0.7191	-2598.04
0.2981,0.7019	-2610.46
0.2295,0.7705	-2597.45
0.2724,0.7276	-2600.59
0.2236,0.7764	-2591.79
0.2881,0.7119	-2599.40
0.2709,0.7291	-2588.68
0.3157,0.6843	-2609.01
0.2430,0.7570	-2590.93
0.2401,0.7599	-2602.50
0.2454,0.7546	-2581.92
0.2506,0.7494	-2586.54
0.2526,0.7474	-2609.38
0.2978,0.7022	-2609.59
0.2344,0.7656	-2587.61
0.2771,0.7229	-2604.55
0.2448,0.7552	-2572.89
0.2149,0.7851	-2577.06
0.2325,0.7675	-2585.27
0.2644,0.7356	-2581.07
0.2192,0.7808	-2580.73
0.2927,0.7073	-2598.85
0.2581,0.7419	-2580.51
0.2524,0.7476	-2597.45
0.2640,0.7360	-2590.26
0.2603,0.7397	-2599.49
0.2315,0.7685	-2602.09
0.3064,0.6936	-2609.97
0.2501,0.7499	-2585.42
0.2611,0.7389	-2583.88
0.2636,0.7364	-2600.51
0.2531,0.7469	-2586.62
0.2039,0.7961	-2565.46
0.2920,0.7080	-2602.33
0.2678,0.7322	-2597.51
0.2957,0.7043	-2596.50
0.2642,0.7358	-2604.61
0.2857,0.7143	-2608.41
0.2136,0.7864	-2567.99
0.2410,0.7590	-2589.82
0.2652,0.7348	-2600.51
0.2719,0.7281	-2612.40
0.2989,0.7011	-2610.48
0.2946,0.7054	-2603.37
0.2286,0.7714	-2581.72
0.2631,0.7369	-2596.39
0.2526,0.7474	-2598.53
0.2238,0.7762	-2581.83
0.2892,0.7108	-2603.97
0.2657,0.7343	-2597.46
0.2757,0.7243	-2595.85
0.2867,0.7133	-2613.89
0.2507,0.7493	-2593.11
0.2396,0.7604	-2592.15
0.2828,0.7172	-2609.31
0.2368,0.7632	-2600.43
0.2450,0.7550	-2595.41
0.2682,0.7318	-2592.50
0.2914,0.7086	-2602.30
0.2258,0.7742	-2589.17
0.2881,0.7119	-2591.26
0.2151,0.7849	-2605.52
0.2236,0.7764	-2579.34
0.2531,0.7469	-2605.02
0.2826,0.7174	-2599.99
0.2456,0.7544	-2580.81
0.3038,0.6962	-2611.50
0.2346,0.7654	-2581.69
0.2321,0.7679	-2588.87
0.2474,0.7526	-2588.68
0.2703,0.7297	-2594.60
0.2613,0.7387	-2591.17
0.2828,0.7172	-2609.31
0.2649,0.7351	-2597.45
0.2454,0.7546	-2599.89
0.2336,0.7664	-2579.31
0.2316,0.7684	-2599.68
0.2544,0.7456	-2595.27
0.2581,0.7419	-2591.06
0.2607,0.7393	-2590.11
0.2586,0.7414	-2595.29
0.2618,0.7382	-2589.12
0.2511,0.7489	-2590.92
0.2309,0.7691	-2593.73
0.2260,0.7740	-2584.23
0.2421,0.7579	-2590.94
0.2527,0.7473	-2596.36
0.2636,0.7364	-2605.65
0.2668,0.7332	-2595.46
0.2387,0.7613	-2591.02
0.2230,0.7770	-2594.33
0.2539,0.7461	-2595.27
0.2646,0.7354	-2581.09
0.2366,0.7634	-2587.56
0.2924,0.7076	-2599.71
0.2511,0.7489	-2598.57
0.2442,0.7558	-2587.53
0.2523,0.7477	-2595.28
0.2847,0.7153	-2599.18
0.2374,0.7626	-2574.72
0.2201,0.7799	-2590.82
0.2687,0.7313	-2601.54
0.2352,0.7648	-2591.13
0.2348,0.7652	-2597.05
0.2618,0.7382	-2596.37
0.2262,0.7738	-2582.99
0.2402,0.7598	-2594.43
0.2495,0.7505	-2589.81
0.2020,0.7980	-2580.63
0.2618,0.7382	-2586.01
0.2210,0.7790	-2586.96
0.2526,0.7474	-2601.79
0.2741,0.7259	-2598.68
0.2402,0.7598	-2584.07
0.2357,0.7643	-2576.99
0.2055,0.7945	-2574.89
0.2180,0.7820	-2579.51
0.2295,0.7705	-2596.24
0.2377,0.7623	-2578.22
0.2116,0.7884	-2591.68
0.2036,0.7964	-2580.47
0.1960,0.8040	-2578.50
0.2672,0.7328	-2587.41
0.2505,0.7495	-2590.92
0.2587,0.7413	-2586.87
0.2165,0.7835	-2580.86
0.2133,0.7867	-2591.48
0.2127,0.7873	-2596.79
0.2453,0.7547	-2586.41
0.2684,0.7316	-2596.52
0.2547,0.7453	-2596.34
0.2291,0.7709	-2585.35
0.2548,0.7452	-2594.20
0.2533,0.7467	-2585.54
0.2451,0.7549	-2587.53
0.2492,0.7508	-2588.70
0.2609,0.7391	-2593.24
0.2366,0.7634	-2588.74
0.2455,0.7545	-2587.54
0.2218,0.7782	-2579.38
0.2515,0.7485	-2590.92
0.2313,0.7687	-2594.91
0.2888,0.7112	-2607.56
0.2615,0.7385	-2591.18
0.2845,0.7155	-2607.47
0.2456,0.7544	-2585.29
0.2363,0.7637	-2580.53
0.2351,0.7649	-2597.03
0.2661,0.7339	-2595.44
0.2739,0.7261	-2602.58
0.2757,0.7243	-2611.30
0.2578,0.7422	-2599.51
0.2366,0.7634	-2596.93
0.2579,0.7421	-2576.26
0.2670,0.7330	-2591.43
0.2329,0.7671	-2601.95
0.2678,0.7322	-2610.58
0.2396,0.7604	-2597.92
0.2203,0.7797	-2569.32
0.2554,0.7446	-2596.34
0.2488,0.7512	-2589.80
0.2369,0.7631	-2566.50
0.2515,0.7485	-2588.74
0.2347,0.7653	-2593.51
0.2319,0.7681	-2587.68
0.2440,0.7560	-2581.87
0.2501,0.7499	-2596.40
0.2430,0.7570	-2596.61
0.2291,0.7709	-2587.78
0.2498,0.7502	-2589.81
0.2613,0.7387	-2599.48
0.2516,0.7484	-2600.74
0.2414,0.7586	-2585.23
0.2757,0.7243	-2586.19
0.2987,0.7013	-2603.64
0.2692,0.7308	-2594.55
0.2825,0.7175	-2591.60
0.2566,0.7434	-2593.15
0.2718,0.7282	-2604.52
0.2649,0.7351	-2600.51
0.3075,0.6925	-2604.35
0.2574,0.7426	-2594.22
0.2237,0.7763	-2576.85
0.2476,0.7524	-2592.01
0.2320,0.7680	-2593.66
0.2454,0.7546	-2598.77
0.2875,0.7125	-2603.90
0.2687,0.7313	-2581.51
0.2470,0.7530	-2606.51
0.2513,0.7487	-2581.10
0.2253,0.7747	-2574.37
0.2300,0.7700	-2593.78
0.2964,0.7036	-2601.76
0.2734,0.7266	-2594.75
0.2388,0.7612	-2595.65
0.2658,0.7342	-2597.46
0.2387,0.7613	-2582.90
0.2461,0.7539	-2588.67
0.2947,0.7053	-2599.02
0.2882,0.7118	-2614.78
0.2395,0.7605	-2571.35
0.2661,0.7339	-2593.41
0.2561,0.7439	-2582.48
0.2406,0.7594	-2584.07
0.2508,0.7492	-2593.11
0.2463,0.7537	-2588.67
0.2334,0.7666	-2590.01
0.2674,0.7326	-2602.54
0.2432,0.7568	-2593.20
0.2139,0.7861	-2577.10
0.2505,0.7495	-2596.39
0.2618,0.7382	-2589.12
0.2982,0.7018	-2609.60
0.2611,0.7389	-2605.73
0.2559,0.7441	-2581.40
0.1947,0.8053	-2570.14
0.2427,0.7573	-2585.24
0.2637,0.7363	-2587.17
0.2636,0.7364	-2599.48
0.2177,0.7823	-2585.92
0.2407,0.7593	-2589.82
0.1814,0.8186	-2562.62
0.2543,0.7457	-2598.50
0.2382,0.7618	-2570.10
0.2587,0.7413	-2594.24
0.2715,0.7285	-2588.73
0.2340,0.7660	-2595.92
0.2306,0.7694	-2584.11
0.2303,0.7697	-2581.70
0.2325,0.7675	-2585.27
0.2790,0.7210	-2586.54
0.2790,0.7210	-2595.09
0.2161,0.7839	-2574.44
0.2122,0.7878	-2583.74
0.2416,0.7584	-2595.53
0.2289,0.7711	-2590.22
0.2490,0.7510	-2593.11
0.2827,0.7173	-2599.07
0.2335,0.7665	-2586.44
0.2316,0.7684	-2591.28
0.2291,0.7709	-2587.78
0.2092,0.7908	-2582.66
0.2767,0.7233	-2593.98
0.2773,0.7227	-2593.06
0.2749,0.7251	-2593.86
0.2389,0.7611	-2591.01
0.2487,0.7513	-2575.42
0.2364,0.7636	-2584.05
0.2616,0.7384	-2592.22
0.2819,0.7181	-2597.16
0.2791,0.7209	-2599.84
0.1979,0.8021	-2597.89
0.2410,0.7590	-2588.67
0.2716,0.7284	-2600.58
0.2513,0.7487	-2589.83
0.2701,0.7299	-2619.44
0.2468,0.7532	-2593.13
0.2131,0.7869	-2561.46
0.2633,0.7367	-2588.16
0.2292,0.7708	-2581.71
0.2406,0.7594	-2595.57
0.2598,0.7402	-2602.63
0.2845,0.7155	-2606.55
0.2220,0.7780	-2585.65
0.2509,0.7491	-2582.17
0.2541,0.7459	-2604.96
0.2602,0.7398	-2606.80
0.2607,0.7393	-2593.23
0.3019,0.6981	-2603.04
0.2402,0.7598	-2599.04
0.2553,0.7447	-2595.27
0.2822,0.7178	-2602.78
0.2519,0.7481	-2596.37
0.2812,0.7188	-2591.48
0.2848,0.7152	-2589.98
0.2336,0.7664	-2591.19
0.2127,0.7873	-2581.08
0.2492,0.7508	-2585.39
0.2575,0.7425	-2603.75
0.2845,0.7155	-2600.09
0.2650,0.7350	-2596.43
0.2365,0.7635	-2588.74
0.2122,0.7878	-2594.23
0.2278,0.7722	-2580.51
0.2623,0.7377	-2597.41
0.2567,0.7433	-2597.40
0.2645,0.7355	-2597.44
0.2092,0.7908	-2577.34
0.2291,0.7709	-2598.70
0.2710,0.7290	-2600.57
0.2595,0.7405	-2589.01
0.2240,0.7760	-2584.30
0.2474,0.7526	-2602.03
0.2271,0.7729	-2579.29
0.2170,0.7830	-2582.12
0.2352,0.7648	-2579.34
0.2678,0.7322	-2618.63
0.2653,0.7347	-2603.57
0.2419,0.7581	-2587.52
0.2562,0.7438	-2596.34
0.2443,0.7557	-2586.40
0.2362,0.7638	-2582.88
0.2328,0.7672	-2590.04
0.2545,0.7455	-2584.53
0.2263,0.7737	-2569.47
0.2959,0.7041	-2604.33
0.2504,0.7496	-2586.53
0.2233,0.7767	-2583.09
0.2621,0.7379	-2590.17
0.2658,0.7342	-2591.37
0.2117,0.7883	-2586.41
0.2626,0.7374	-2600.52
0.2867,0.7133	-2602.04
0.2495,0.7505	-2604.12
0.2827,0.7173	-2610.24
0.2449,0.7551	-2602.17
0.2204,0.7796	-2564.26
0.2612,0.7388	-2599.48
0.3414,0.6586	-2623.53
0.2490,0.7510	-2592.01
0.2721,0.7279	-2586.81
0.2741,0.7259	-2597.71
0.2031,0.7969	-2565.48
0.2813,0.7187	-2598.99
0.2984,0.7016	-2602.77
0.2261,0.7739	-2576.84
0.2244,0.7756	-2578.09
0.2716,0.7284	-2601.56
0.2206,0.7794	-2581.94
0.2827,0.7173	-2593.48
0.2840,0.7160	-2604.69
0.2529,0.7471	-2585.53
0.2161,0.7839	-2580.88
0.2862,0.7138	-2598.36
0.2502,0.7498	-2596.40
0.2863,0.7137	-2598.37
0.2527,0.7473	-2595.28
0.2412,0.7588	-2587.52
0.2075,0.7925	-2584.15
0.2428,0.7572	-2603.44
0.2356,0.7644	-2576.99
0.2435,0.7565	-2588.66
0.3009,0.6991	-2608.87
0.2328,0.7672	-2593.61
0.2484,0.7516	-2592.01
0.2542,0.7458	-2596.35
0.2454,0.7546	-2589.78
0.2425,0.7575	-2602.33
0.2680,0.7320	-2584.45
0.2177,0.7823	-2570.57
0.2325,0.7675	-2594.83
0.2511,0.7489	-2590.92
0.2705,0.7295	-2591.63
0.2371,0.7629	-2591.06
0.2478,0.7522	-2573.14
0.2230,0.7770	-2575.61
0.2448,0.7552	-2584.15
0.2579,0.7421	-2600.57
0.2494,0.7506	-2583.19
0.2262,0.7738	-2598.98
0.2603,0.7397	-2606.80
0.2661,0.7339	-2588.34
0.2471,0.7529	-2598.70
0.2088,0.7912	-2576.03
0.2325,0.7675	-2579.30
0.2247,0.7753	-2576.85
0.2456,0.7544	-2586.42
0.2665,0.7335	-2605.58
0.2730,0.7270	-2598.65
0.2252,0.7748	-2584.26
0.2424,0.7576	-2581.82
0.2597,0.7403	-2606.83
0.2290,0.7710	-2575.64
0.2614,0.7386	-2603.64
0.2806,0.7194	-2603.67
0.2579,0.7421	-2606.91
0.2655,0.7345	-2590.33
0.2489,0.7511	-2598.64
0.2034,0.7966	-2577.76
0.2607,0.7393	-2595.32
0.2761,0.7239	-2596.83
0.2493,0.7507	-2580.99
0.2819,0.7181	-2604.64
0.2703,0.7297	-2596.58
0.2384,0.7616	-2598.00
0.2819,0.7181	-2603.70
0.2561,0.7439	-2583.55
0.2006,0.7994	-2604.28
0.2184,0.7816	-2571.84
0.2779,0.7221	-2594.06
0.2463,0.7537	-2587.55
0.2764,0.7236	-2597.81
0.2712,0.7288	-2594.64
0.2222,0.7778	-2583.13
0.2338,0.7662	-2597.12
0.2578,0.7422	-2597.40
0.2440,0.7560	-2588.66
0.2668,0.7332	-2590.41
0.2637,0.7363	-2596.40
0.2520,0.7480	-2586.58
0.2620,0.7380	-2589.12
0.2942,0.7058	-2606.85
0.2260,0.7740	-2580.54
0.2833,0.7167	-2600.96
0.2374,0.7626	-2588.72
0.2562,0.7438	-2586.75
0.2501,0.7499	-2597.50
0.2771,0.7229	-2598.80
0.2353,0.7647	-2572.27
0.2971,0.7029	-2605.26
0.2424,0.7576	-2576.12
0.2541,0.7459	-2599.58
0.2343,0.7657	-2600.64
0.2682,0.7318	-2599.53
0.2316,0.7684	-2590.09
0.3109,0.6891	-2604.66
0.2663,0.7337	-2587.34
0.2602,0.7398	-2587.99
0.2244,0.7756	-2583.05
0.2199,0.7801	-2575.64
0.2180,0.7820	-2576.95
0.3059,0.6941	-2601.75
0.2202,0.7798	-2574.37
0.2448,0.7552	-2585.28
0.2627,0.7373	-2601.55
0.2009,0.7991	-2582.12
0.2304,0.7696	-2576.87
0.2963,0.7037	-2613.86
0.2191,0.7809	-2584.55
0.2481,0.7519	-2582.03
0.2449,0.7551	-2588.66
0.2298,0.7702	-2581.70
0.2322,0.7678	-2604.41
0.2966,0.7034	-2598.32
0.2306,0.7694	-2576.88
0.2703,0.7297	-2596.58
0.2700,0.7300	-2603.53
0.2203,0.7797	-2588.27
0.2703,0.7297	-2593.60
0.2777,0.7223	-2599.78
0.2668,0.7332	-2593.44
0.2702,0.7298	-2598.57
0.2882,0.7118	-2606.64
0.2262,0.7738	-2601.44
0.2478,0.7522	-2600.90
0.2623,0.7377	-2596.38
0.2708,0.7292	-2590.66
0.2485,0.7515	-2594.22
0.2787,0.7213	-2596.02
0.2512,0.7488	-2594.20
0.2663,0.7337	-2590.38
0.2656,0.7344	-2588.31
0.2522,0.7478	-2590.93
0.2712,0.7288	-2602.55
0.2537,0.7463	-2589.88
0.2441,0.7559	-2580.74
0.2279,0.7721	-2590.27
0.2206,0.7794	-2595.82
0.2593,0.7407	-2595.30
0.2684,0.7316	-2597.52
0.2216,0.7784	-2583.16
0.2460,0.7540	-2593.14
0.2569,0.7431	-2595.28
0.2339,0.7661	-2573.38
0.2703,0.7297	-2591.62
0.2558,0.7442	-2593.14
0.2575,0.7425	-2601.64
0.2642,0.7358	-2589.25
0.2480,0.7520	-2575.37
0.2210,0.7790	-2608.39
0.2607,0.7393	-2595.32
0.2422,0.7578	-2587.52
0.2708,0.7292	-2581.74
0.2674,0.7326	-2596.49
0.2761,0.7239	-2589.12
0.2462,0.7538	-2595.38
0.2708,0.7292	-2600.56
0.2035,0.7965	-2591.40
0.2602,0.7398	-2591.13
0.2878,0.7122	-2603.91
0.2878,0.7122	-2601.19
0.2668,0.7332	-2601.53
0.2714,0.7286	-2595.63
0.2218,0.7782	-2578.13
0.2427,0.7573	-2581.83
0.2770,0.7230	-2612.23
0.2449,0.7551	-2594.29
0.2679,0.7321	-2595.50
0.2394,0.7606	-2594.46
0.2462,0.7538	-2586.43
0.2387,0.7613	-2587.54
0.2597,0.7403	-2597.40
0.2549,0.7451	-2597.42
0.2633,0.7367	-2604.63
0.2370,0.7630	-2606.26
0.2448,0.7552	-2592.04
0.2422,0.7578	-2589.80
0.2036,0.7964	-2560.01
0.2678,0.7322	-2596.50
0.2419,0.7581	-2588.66
0.1992,0.8008	-2576.76
0.2356,0.7644	-2595.82
0.2638,0.7362	-2596.41
0.2311,0.7689	-2594.92
0.2411,0.7589	-2603.57
0.2398,0.7602	-2589.84
0.2282,0.7718	-2587.82
0.2094,0.7906	-2579.99
0.2545,0.7455	-2582.37
0.2615,0.7385	-2590.14
0.2245,0.7755	-2576.85
0.2497,0.7503	-2583.21
0.2174,0.7826	-2580.82
0.2348,0.7652	-2594.69
0.2268,0.7732	-2594.02
0.2435,0.7565	-2595.46
0.2405,0.7595	-2587.52
0.2406,0.7594	-2599.01
0.2351,0.7649	-2584.05
0.1950,0.8050	-2570.11
0.2595,0.7405	-2585.87
0.2477,0.7523	-2605.35
0.2188,0.7812	-2582.02
0.2515,0.7485	-2584.38
0.2402,0.7598	-2594.44
0.2056,0.7944	-2578.94
0.2697,0.7303	-2600.55
0.2810,0.7190	-2603.68
0.2581,0.7419	-2598.45
0.2556,0.7444	-2593.13
0.2445,0.7555	-2595.43
0.2190,0.7810	-2570.57
0.2941,0.7059	-2599.84
0.2764,0.7236	-2600.69
0.2631,0.7369	-2598.45
0.2198,0.7802	-2578.18
0.2511,0.7489	-2607.31
0.2333,0.7667	-2590.02
0.2778,0.7222	-2595.96
0.2746,0.7254	-2603.56
0.2877,0.7123	-2593.02
0.2656,0.7344	-2593.39
0.2570,0.7430	-2591.03
0.2340,0.7660	-2585.25
0.2654,0.7346	-2592.37
0.2623,0.7377	-2592.24
0.2957,0.7043	-2606.92
0.2569,0.7431	-2595.28
0.2681,0.7319	-2589.48
0.2607,0.7393	-2600.53
0.2753,0.7247	-2610.34
0.2637,0.7363	-2595.38
0.2909,0.7091	-2605.83
0.2877,0.7123	-2604.81
0.2412,0.7588	-2594.40
0.2500,0.7500	-2600.80
0.2739,0.7261	-2597.70
0.2646,0.7354	-2597.44
0.2474,0.7526	-2593.13
0.2927,0.7073	-2606.79
0.2412,0.7588	-2574.92
0.2767,0.7233	-2595.90
0.2485,0.7515	-2584.26
0.2377,0.7623	-2587.55
0.2477,0.7523	-2582.01
0.3275,0.6725	-2611.54
0.2518,0.7482	-2589.84
0.2222,0.7778	-2576.87
0.2576,0.7424	-2592.11
0.2586,0.7414	-2587.92
0.2367,0.7633	-2588.73
0.3095,0.6905	-2609.34
0.2766,0.7234	-2606.47
0.2337,0.7663	-2584.06
0.2553,0.7447	-2599.55
0.2727,0.7273	-2608.45
0.2373,0.7627	-2588.72
0.2477,0.7523	-2584.23
0.2794,0.7206	-2603.64
0.2270,0.7730	-2597.67
0.2787,0.7213	-2602.67
0.2709,0.7291	-2588.68
0.2312,0.7688	-2586.50
0.2723,0.7277	-2582.90
0.2549,0.7451	-2603.85
0.2200,0.7800	-2595.90
0.2572,0.7428	-2598.46
0.2250,0.7750	-2584.27
0.2293,0.7707	-2595.04
0.2806,0.7194	-2598.96
0.2787,0.7213	-2590.31
0.2321,0.7679	-2584.08
0.2493,0.7507	-2586.50
0.2285,0.7715	-2581.72
0.2151,0.7849	-2586.11
0.2625,0.7375	-2605.68
0.2788,0.7212	-2594.12
0.2371,0.7629	-2584.05
0.2299,0.7701	-2584.12
0.2388,0.7612	-2585.22
0.2331,0.7669	-2584.07
0.2484,0.7516	-2590.90
0.2582,0.7418	-2579.46
0.2784,0.7216	-2598.86
0.2329,0.7671	-2587.65
0.2369,0.7631	-2588.73
0.2259,0.7741	-2576.84
0.2314,0.7686	-2587.69
0.2423,0.7577	-2586.38
0.2659,0.7341	-2590.36
0.2253,0.7747	-2576.84
0.2198,0.7802	-2584.51
0.1913,0.8087	-2567.56
0.2175,0.7825	-2584.65
0.2461,0.7539	-2589.78
0.2323,0.7677	-2586.47
0.2050,0.7950	-2584.41
0.2220,0.7780	-2574.36
0.1824,0.8176	-2571.51
0.2506,0.7494	-2576.67
0.2229,0.7771	-2589.35
0.2384,0.7616	-2587.54
0.2090,0.7910	-2573.36
0.2317,0.7683	-2592.48
0.1838,0.8162	-2578.77
0.2111,0.7889	-2568.00
0.2452,0.7548	-2595.41
0.2320,0.7680	-2575.70
0.2299,0.7701	-2580.49
0.2525,0.7475	-2597.45
0.2205,0.7795	-2581.95
0.2028,0.7972	-2566.86
0.2406,0.7594	-2589.82
0.2446,0.7554	-2587.53
0.2257,0.7743	-2580.54
0.2345,0.7655	-2589.97
0.2204,0.7796	-2593.32
0.2237,0.7763	-2588.05
0.2147,0.7853	-2587.44
0.2352,0.7648	-2597.02
0.2276,0.7724	-2586.62
0.2409,0.7591	-2597.85
0.2581,0.7419	-2597.40
0.2615,0.7385	-2605.71
0.2407,0.7593	-2581.78
0.2580,0.7420	-2592.12
0.2147,0.7853	-2590.04
0.2324,0.7676	-2591.24
0.2274,0.7726	-2604.97
0.2679,0.7321	-2591.48
0.2371,0.7629	-2588.73
0.2352,0.7648	-2584.05
0.2192,0.7808	-2562.95
0.2600,0.7400	-2590.08
0.2274,0.7726	-2581.74
0.2504,0.7496	-2583.24
0.2411,0.7589	-2585.23
0.2712,0.7288	-2596.61
0.2012,0.7988	-2582.10
0.2675,0.7325	-2604.55
0.2431,0.7569	-2593.20
0.2667,0.7333	-2600.52
0.2536,0.7464	-2601.75
0.2363,0.7637	-2587.57
0.2110,0.7890	-2594.38
0.2665,0.7335	-2593.43
0.2196,0.7804	-2580.72
0.2601,0.7399	-2591.13
0.2354,0.7646	-2579.34
0.2468,0.7532	-2604.29
0.2010,0.7990	-2571.07
0.2714,0.7286	-2610.45
0.1858,0.8142	-2588.79
0.2683,0.7317	-2600.53
0.2332,0.7668	-2587.64
0.2596,0.7404	-2587.97
0.2218,0.7782	-2576.87
0.2121,0.7879	-2591.61
0.2180,0.7820	-2583.34
0.2702,0.7298	-2610.49
0.2375,0.7625	-2589.88
0.2470,0.7530	-2606.50
0.2426,0.7574	-2573.86
0.2392,0.7608	-2589.85
0.2212,0.7788	-2579.40
0.2767,0.7233	-2603.59
0.2505,0.7495	-2584.34
0.2565,0.7435	-2610.18
0.2722,0.7278	-2593.70
0.2490,0.7510	-2580.97
0.2422,0.7578	-2598.93
0.2683,0.7317	-2602.54
0.2529,0.7471	-2596.36
0.2531,0.7469	-2570.38
0.2522,0.7478	-2602.89
0.2283,0.7717	-2595.12
0.2603,0.7397	-2599.49
0.2733,0.7267	-2593.77
0.2406,0.7594	-2587.52
0.2292,0.7708	-2581.71
0.2198,0.7802	-2594.65
0.2641,0.7359	-2594.36
0.2885,0.7115	-2610.26
0.2709,0.7291	-2581.75
0.2776,0.7224	-2603.60
0.2116,0.7884	-2591.67
0.2410,0.7590	-2585.23
0.2264,0.7736	-2589.13
0.2328,0.7672	-2591.23
0.2568,0.7432	-2585.71
0.2579,0.7421	-2587.89
0.2223,0.7777	-2589.39
0.2635,0.7365	-2586.12
0.2042,0.7958	-2577.69
0.2186,0.7814	-2590.95
0.2457,0.7543	-2588.66
0.2505,0.7495	-2594.20
0.2562,0.7438	-2575.02
0.2691,0.7309	-2590.55
0.2413,0.7587	-2589.81
0.1958,0.8042	-2585.59
0.2452,0.7548	-2588.66
0.2563,0.7437	-2572.90
0.2601,0.7399	-2586.95
0.2734,0.7266	-2598.66
0.2435,0.7565	-2596.59
0.2415,0.7585	-2605.83
0.2475,0.7525	-2590.90
0.2596,0.7404	-2598.45
0.2482,0.7518	-2587.58
0.2872,0.7128	-2590.25
0.2476,0.7524	-2579.79
0.2531,0.7469	-2588.78
0.2590,0.7410	-2596.35
0.2860,0.7140	-2610.24
0.2600,0.7400	-2592.17
0.2651,0.7349	-2609.69
0.2859,0.7141	-2597.42
0.2482,0.7518	-2573.17
0.2672,0.7328	-2594.47
0.2314,0.7686	-2581.69
0.2542,0.7458	-2596.35
0.2503,0.7497	-2586.53
0.2913,0.7087	-2610.30
0.3084,0.6916	-2601.20
0.2547,0.7453	-2594.20
0.2490,0.7510	-2596.42
0.2205,0.7795	-2575.63
0.2544,0.7456	-2588.82
0.2806,0.7194	-2596.13
0.3196,0.6804	-2611.61
0.2289,0.7711	-2597.50
0.2607,0.7393	-2592.19
0.2177,0.7823	-2596.15
0.2294,0.7706	-2575.65
0.2449,0.7551	-2594.29
0.2652,0.7348	-2588.28
0.2245,0.7755	-2590.48
0.2181,0.7819	-2597.38
0.2460,0.7540	-2597.62
0.2242,0.7758	-2574.37
0.2809,0.7191	-2606.49
0.2658,0.7342	-2591.37
0.1915,0.8085	-2564.67
0.2356,0.7644	-2593.47
0.2584,0.7416	-2593.18
0.2465,0.7535	-2586.43
0.2662,0.7338	-2596.46
0.2450,0.7550	-2594.29
0.2139,0.7861	-2590.12
0.2317,0.7683	-2590.08
0.2505,0.7495	-2599.68
0.2564,0.7436	-2587.82
0.2137,0.7863	-2570.59
0.2354,0.7646	-2605.26
0.2259,0.7741	-2601.48
0.2582,0.7418	-2596.34
0.2606,0.7394	-2586.97
0.2338,0.7662	-2572.19
0.2573,0.7427	-2592.10
0.2725,0.7275	-2609.43
0.2397,0.7603	-2594.45
0.2613,0.7387	-2589.09
0.2659,0.7341	-2597.47
0.2509,0.7491	-2596.39
0.2470,0.7530	-2592.02
0.2739,0.7261	-2586.97
0.2844,0.7156	-2596.40
0.2602,0.7398	-2600.53
0.2218,0.7782	-2594.44
0.2153,0.7847	-2573.16
0.2768,0.7232	-2597.83
0.2821,0.7179	-2592.50
0.2821,0.7179	-2604.64
0.2681,0.7319	-2591.49
0.1769,0.8231	-2567.76
0.2556,0.7444	-2593.13
0.2943,0.7057	-2600.74
0.2787,0.7213	-2602.67
0.2331,0.7669	-2582.88
0.2617,0.7383	-2594.30
0.2059,0.7941	-2566.76
0.2384,0.7616	-2586.38
0.2716,0.7284	-2593.67
0.2755,0.7245	-2584.23
0.2446,0.7554	-2583.02
0.2617,0.7383	-2605.71
0.2065,0.7935	-2580.21
0.2564,0.7436	-2595.27
0.2655,0.7345	-2585.25
0.2605,0.7395	-2589.06
0.2691,0.7309	-2600.54
0.2779,0.7221	-2600.74
0.2249,0.7751	-2571.90
0.2486,0.7514	-2589.80
0.2740,0.7260	-2611.35
0.2308,0.7692	-2574.47
0.2510,0.7490	-2582.17
0.3012,0.6988	-2606.35
0.2299,0.7701	-2578.08
0.2841,0.7159	-2588.06
0.2638,0.7362	-2598.46
0.2299,0.7701	-2574.45
0.2499,0.7501	-2592.01
0.2913,0.7087	-2610.29
0.2223,0.7777	-2601.92
0.2595,0.7405	-2603.69
0.2399,0.7601	-2588.68
0.2445,0.7555	-2603.33
0.2778,0.7222	-2597.87
0.2710,0.7290	-2589.68
0.2672,0.7328	-2598.50
0.2252,0.7748	-2585.49
0.2399,0.7601	-2592.14
0.2719,0.7281	-2605.51
0.2437,0.7563	-2589.79
0.2387,0.7613	-2582.90
0.2455,0.7545	-2578.56
0.2407,0.7593	-2597.86
0.2354,0.7646	-2589.94
0.2513,0.7487	-2599.66
0.2445,0.7555	-2587.53
0.2197,0.7803	-2587.05
0.2361,0.7639	-2601.66
0.2274,0.7726	-2568.28
0.2694,0.7306	-2598.55
0.2433,0.7567	-2597.74
0.2627,0.7373	-2603.61
0.2481,0.7519	-2588.68
0.2408,0.7592	-2587.52
0.2226,0.7774	-2588.12
0.2205,0.7795	-2569.32
0.2480,0.7520	-2585.36
0.2252,0.7748	-2585.49
0.2599,0.7401	-2589.03
0.2076,0.7924	-2566.73
0.2379,0.7621	-2593.36
0.2267,0.7733	-2581.75
0.2715,0.7285	-2596.63
0.2234,0.7766	-2598.03
0.2678,0.7322	-2603.54
0.2500,0.7500	-2594.21
0.2462,0.7538	-2592.02
0.2413,0.7587	-2600.12
0.2547,0.7453	-2602.79
0.2319,0.7681	-2580.49
0.2609,0.7391	-2599.49
0.2368,0.7632	-2589.90
0.2269,0.7731	-2591.55
0.2647,0.7353	-2599.49
0.2724,0.7276	-2597.65
0.2174,0.7826	-2582.09
0.2566,0.7434	-2596.34
0.2472,0.7528	-2585.33
0.2602,0.7398	-2583.82
0.2630,0.7370	-2585.06
0.2353,0.7647	-2588.77
0.1926,0.8074	-2573.19
0.2430,0.7570	-2597.75
0.2554,0.7446	-2586.71
0.2715,0.7285	-2593.67
0.2388,0.7612	-2587.54
0.2450,0.7550	-2590.91
0.1980,0.8020	-2585.26
0.2154,0.7846	-2582.21
0.2253,0.7747	-2594.14
0.2788,0.7212	-2597.92
0.2405,0.7595	-2585.22
0.2521,0.7479	-2593.11
0.2170,0.7830	-2570.57
0.2261,0.7739	-2576.84
0.2402,0.7598	-2590.98
0.2868,0.7132	-2602.96
0.2743,0.7257	-2588.96
0.3135,0.6865	-2597.08
0.2272,0.7728	-2575.62
0.2333,0.7667	-2578.12
0.2410,0.7590	-2574.90
0.2499,0.7501	-2593.11
0.2449,0.7551	-2599.92
0.2878,0.7122	-2595.76
0.2676,0.7324	-2612.61
0.2650,0.7350	-2587.25
0.2686,0.7314	-2596.53
0.2466,0.7534	-2587.55
0.2782,0.7218	-2609.33
0.2878,0.7122	-2600.29
0.2631,0.7369	-2600.51
0.2637,0.7363	-2596.40
0.2550,0.7450	-2588.84
0.2505,0.7495	-2597.49
0.2297,0.7703	-2572.02
0.2849,0.7151	-2610.24
0.2455,0.7545	-2592.03
0.2338,0.7662	-2588.81
0.2256,0.7744	-2566.98
0.2425,0.7575	-2579.55
0.2373,0.7627	-2599.23
0.2822,0.7178	-2593.44
0.2484,0.7516	-2574.29
0.2497,0.7503	-2594.21
0.2211,0.7789	-2594.51
0.2602,0.7398	-2602.63
0.2155,0.7845	-2570.57
0.2617,0.7383	-2598.45
0.2572,0.7428	-2595.28
0.2474,0.7526	-2588.68
0.2766,0.7234	-2593.01
0.2755,0.7245	-2597.77
0.2500,0.7500	-2597.50
0.3011,0.6989	-2614.77
0.2078,0.7922	-2586.79
0.2609,0.7391	-2597.40
0.2682,0.7318	-2598.52
0.2551,0.7449	-2583.48
0.2411,0.7589	-2593.26
0.2587,0.7413	-2592.13
0.2088,0.7912	-2574.70
0.2353,0.7647	-2579.34
0.2344,0.7656	-2599.45
0.2748,0.7252	-2610.35
0.2339,0.7661	-2599.49
0.2414,0.7586	-2606.98
0.2397,0.7603	-2599.07
0.2317,0.7683	-2592.48
0.2291,0.7709	-2591.42
0.2993,0.7007	-2607.94
0.2600,0.7400	-2597.40
0.2258,0.7742	-2576.84
0.2409,0.7591	-2586.37
0.2294,0.7706	-2581.71
0.2584,0.7416	-2596.34
0.3058,0.6942	-2606.66
0.2732,0.7268	-2599.63
0.2318,0.7682	-2606.86
0.2607,0.7393	-2592.19
0.2116,0.7884	-2595.62
0.2399,0.7601	-2588.68
0.2941,0.7059	-2605.09
0.2970,0.7030	-2615.59
0.2448,0.7552	-2596.55
0.2653,0.7347	-2589.31
0.2496,0.7504	-2581.00
0.2062,0.7938	-2569.45
0.2551,0.7449	-2596.34
0.2707,0.7293	-2594.62
0.2630,0.7370	-2596.39
0.2626,0.7374	-2600.52
0.2623,0.7377	-2589.14
0.2078,0.7922	-2572.08
0.2494,0.7506	-2599.72
0.2685,0.7315	-2605.54
0.2850,0.7150	-2590.93
0.2749,0.7251	-2606.47
0.2668,0.7332	-2589.40
0.2216,0.7784	-2588.18
0.2554,0.7446	-2581.36
0.2576,0.7424	-2584.70
0.2475,0.7525	-2595.35
0.2695,0.7305	-2607.52
0.2456,0.7544	-2589.78
0.2438,0.7562	-2588.66
0.2463,0.7537	-2590.90
0.2258,0.7742	-2573.15
0.2597,0.7403	-2595.30
0.2545,0.7455	-2578.08
0.2306,0.7694	-2588.93
0.2611,0.7389	-2593.24
0.2743,0.7257	-2587.98
0.2311,0.7689	-2575.68
0.2893,0.7107	-2596.79
0.2415,0.7585	-2585.23
0.2362,0.7638	-2582.88
0.2495,0.7505	-2593.11
0.2305,0.7695	-2598.58
0.2553,0.7447	-2590.99
0.2816,0.7184	-2604.63
0.2507,0.7493	-2602.96
0.2455,0.7545	-2597.64
0.2317,0.7683	-2585.29
0.2100,0.7900	-2597.16
0.2547,0.7453	-2583.46
0.2661,0.7339	-2591.38
0.2357,0.7643	-2598.17
0.2411,0.7589	-2588.67
0.2201,0.7799	-2585.76
0.2371,0.7629	-2596.90
0.2099,0.7901	-2577.30
0.2731,0.7269	-2596.69
0.2277,0.7723	-2581.73
0.2495,0.7505	-2589.81
0.2459,0.7541	-2583.06
0.2138,0.7862	-2584.91
0.2332,0.7668	-2587.64
0.2408,0.7592	-2582.93
0.2403,0.7597	-2601.33
0.2619,0.7381	-2580.83
0.2320,0.7680	-2586.48
0.2247,0.7753	-2589.23
0.2206,0.7794	-2584.46
0.2755,0.7245	-2590.03
0.2565,0.7435	-2597.40
0.3012,0.6988	-2604.67
0.2255,0.7745	-2584.25
0.2066,0.7934	-2584.24
0.2235,0.7765	-2573.12
0.2819,0.7181	-2600.90
0.2530,0.7470	-2601.77
0.2922,0.7078	-2602.35
0.2680,0.7320	-2593.49
0.2379,0.7621	-2585.22
0.2079,0.7921	-2576.08
0.2934,0.7066	-2608.58
0.2333,0.7667	-2582.88
0.2953,0.7047	-2613.86
0.2558,0.7442	-2589.93
0.2150,0.7850	-2583.53
0.2167,0.7833	-2596.26
0.2676,0.7324	-2591.46
0.2020,0.7980	-2575.14
0.2558,0.7442	-2592.07
0.2894,0.7106	-2596.79
0.2622,0.7378	-2599.48
0.2067,0.7933	-2585.58
0.2492,0.7508	-2582.08
0.2187,0.7813	-2588.39
0.2544,0.7456	-2597.42
0.2836,0.7164	-2604.68
0.2508,0.7492	-2595.30
0.2133,0.7867	-2581.04
0.2500,0.7500	-2592.01
0.2247,0.7753	-2581.80
0.2742,0.7258	-2590.90
0.2557,0.7443	-2588.86
0.2525,0.7475	-2589.85
0.2658,0.7342	-2611.69
0.2589,0.7411	-2585.83
0.2304,0.7696	-2587.73
0.2706,0.7294	-2609.48
0.2406,0.7594	-2595.57
0.2529,0.7471	-2595.28
0.2791,0.7209	-2597.94
0.2323,0.7677	-2587.67
0.2260,0.7740	-2578.07
0.2611,0.7389	-2596.36
0.2728,0.7272	-2589.81
0.2244,0.7756	-2583.05
0.2707,0.7293	-2594.61
0.2385,0.7615	-2584.06
0.2463,0.7537	-2604.32
0.2540,0.7460	-2597.43
0.2480,0.7520	-2592.01
0.2205,0.7795	-2587.00
0.2362,0.7638	-2595.79
0.2502,0.7498	-2592.01
0.2220,0.7780	-2579.38
0.2626,0.7374	-2597.42
0.2292,0.7708	-2578.07
0.2475,0.7525	-2582.01
0.2300,0.7700	-2602.24
0.2273,0.7727	-2587.86
0.2230,0.7770	-2576.86
0.2488,0.7512	-2586.49
0.2357,0.7643	-2591.11
0.2353,0.7647	-2586.41
0.2200,0.7800	-2576.90
0.2644,0.7356	-2607.67
0.2421,0.7579	-2580.67
0.2569,0.7431	-2593.15
0.2339,0.7661	-2575.76
0.2635,0.7365	-2584.07
0.2413,0.7587	-2585.23
0.2627,0.7373	-2610.83
0.2155,0.7845	-2558.94
0.2268,0.7732	-2575.62
0.2069,0.7931	-2582.87
0.2890,0.7110	-2603.96
0.2354,0.7646	-2589.94
0.2573,0.7427	-2585.74
0.2306,0.7694	-2591.34
0.2762,0.7238	-2596.84
0.2349,0.7651	-2593.50
0.3022,0.6978	-2612.27
0.2664,0.7336	-2591.40
0.2553,0.7447	-2593.13
0.2218,0.7782	-2585.66
0.2835,0.7165	-2598.19
0.2391,0.7609	-2584.06
0.2704,0.7296	-2600.56
0.2670,0.7330	-2580.32
0.2170,0.7830	-2576.98
0.2173,0.7827	-2575.69
0.2581,0.7419	-2600.56
0.2741,0.7259	-2593.81
0.2247,0.7753	-2587.99
0.2992,0.7008	-2601.13
0.2114,0.7886	-2602.23
0.2522,0.7478	-2593.11
0.2430,0.7570	-2587.52
0.2458,0.7542	-2587.54
0.2425,0.7575	-2584.10
0.2692,0.7308	-2597.54
0.2285,0.7715	-2595.11
0.2326,0.7674	-2598.40
0.2554,0.7446	-2599.55
0.2397,0.7603	-2587.53
0.2341,0.7659	-2584.06
0.2510,0.7490	-2590.92
0.2014,0.7986	-2571.05
0.2148,0.7852	-2571.88
0.2797,0.7203	-2607.43
0.2477,0.7523	-2597.57
0.2958,0.7042	-2615.59
0.2669,0.7331	-2587.38
0.2108,0.7892	-2579.89
0.2509,0.7491	-2584.36
0.2280,0.7720	-2582.95
0.2345,0.7655	-2575.77
0.2689,0.7311	-2604.54
0.2501,0.7499	-2586.52
0.2348,0.7652	-2584.05
0.2420,0.7580	-2601.22
0.2196,0.7804	-2580.72
0.2269,0.7731	-2591.56
0.2408,0.7592	-2589.82
0.2487,0.7513	-2589.80
0.2121,0.7879	-2567.99
0.2415,0.7585	-2595.53
0.2341,0.7659	-2587.62
0.2088,0.7912	-2596.01
0.2248,0.7752	-2586.75
0.2376,0.7624	-2593.38
0.1993,0.8007	-2575.36
0.2277,0.7723	-2575.63
0.2397,0.7603	-2593.30
0.2224,0.7776	-2570.61
0.2522,0.7478	-2593.11
0.2560,0.7440	-2607.01
0.2368,0.7632	-2588.73
0.2140,0.7860	-2588.81
0.2353,0.7647	-2585.23
0.2058,0.7942	-2584.32
0.2533,0.7467	-2592.03
0.2279,0.7721	-2580.51
0.2330,0.7670	-2580.50
0.2273,0.7727	-2598.87
0.2754,0.7246	-2608.40
0.2125,0.7875	-2574.54
0.2547,0.7453	-2599.57
0.2719,0.7281	-2593.69
0.2464,0.7536	-2579.73
0.2329,0.7671	-2591.22
0.2739,0.7261	-2585.02
0.2173,0.7827	-2587.22
0.2723,0.7277	-2595.68
0.2554,0.7446	-2585.64
0.2406,0.7594	-2610.51
0.2538,0.7462	-2604.98
0.2689,0.7311	-2588.53
0.2219,0.7781	-2568.09
0.2269,0.7731	-2581.75
0.2605,0.7395	-2597.40
0.2497,0.7503	-2588.71
0.2695,0.7305	-2589.58
0.2581,0.7419	-2582.62
0.2562,0.7438	-2591.01
0.2453,0.7547	-2589.78
0.2559,0.7441	-2589.94
0.2641,0.7359	-2594.36
0.2120,0.7880	-2564.06
0.2896,0.7104	-2596.81
0.2467,0.7533	-2599.83
0.2998,0.7002	-2625.78
0.2435,0.7565	-2594.32
0.2489,0.7511	-2599.74
0.2310,0.7690	-2579.29
0.3024,0.6976	-2596.40
0.2292,0.7708	-2590.20
0.2677,0.7323	-2600.52
0.2034,0.7966	-2584.58
0.2269,0.7731	-2600.14
0.2576,0.7424	-2599.52
0.2864,0.7136	-2598.38
0.2548,0.7452	-2592.05
0.2547,0.7453	-2577.02
0.2305,0.7695	-2585.31
0.2272,0.7728	-2579.29
0.2366,0.7634	-2573.51
0.2553,0.7447	-2584.56
0.2402,0.7598	-2592.13
0.2423,0.7577	-2590.94
0.2569,0.7431	-2588.90
0.2607,0.7393	-2585.93
0.2627,0.7373	-2585.04
0.2267,0.7733	-2584.21
0.2727,0.7273	-2594.71
0.2301,0.7699	-2578.08
0.2644,0.7356	-2597.44
0.2759,0.7241	-2592.96
0.2434,0.7566	-2596.59
0.2113,0.7887	-2587.76
0.2785,0.7215	-2602.67
0.2443,0.7557	-2593.18
0.2296,0.7704	-2584.13
0.2668,0.7332	-2601.53
0.2607,0.7393	-2584.89
0.1696,0.8304	-2578.55
0.2322,0.7678	-2574.51
0.2781,0.7219	-2603.61
0.2500,0.7500	-2596.40
0.2495,0.7505	-2598.62
0.2706,0.7294	-2602.54
0.1704,0.8296	-2567.27
0.2397,0.7603	-2594.46
0.2566,0.7434	-2600.59
0.2295,0.7705	-2586.55
0.2512,0.7488	-2576.73
0.2566,0.7434	-2594.21
0.1953,0.8047	-2568.67
0.2541,0.7459	-2603.89
0.2606,0.7394	-2598.44
0.2350,0.7650	-2589.95
0.2822,0.7178	-2588.78
0.2232,0.7768	-2576.86
0.2138,0.7862	-2578.41
0.2759,0.7241	-2603.57
0.2455,0.7545	-2575.19
0.2329,0.7671	-2578.11
0.2895,0.7105	-2598.60
0.2428,0.7572	-2584.11
0.2171,0.7829	-2568.00
0.2317,0.7683	-2575.70
0.2424,0.7576	-2573.84
0.2159,0.7841	-2578.31
0.2682,0.7318	-2597.52
0.2368,0.7632	-2601.60
0.2103,0.7897	-2581.25
0.2272,0.7728	-2582.97
0.2318,0.7682	-2591.28
0.2189,0.7811	-2583.29
0.2419,0.7581	-2585.24
0.2677,0.7323	-2598.51
0.2485,0.7515	-2588.69
0.2607,0.7393	-2594.28
0.2173,0.7827	-2575.69
0.2324,0.7676	-2584.08
0.2212,0.7788	-2569.33
0.2970,0.7030	-2603.53
0.2608,0.7392	-2603.65
0.2314,0.7686	-2579.29
0.2077,0.7923	-2582.79
0.2543,0.7457	-2587.74
0.2472,0.7528	-2594.24
0.2999,0.7001	-2607.97
0.2580,0.7420	-2594.23
0.2292,0.7708	-2586.56
0.2382,0.7618	-2601.50
0.2291,0.7709	-2598.70
0.2707,0.7293	-2598.58
0.3002,0.6998	-2603.76
0.2568,0.7432	-2585.71
0.2492,0.7508	-2586.49
0.2767,0.7233	-2595.90
0.2436,0.7564	-2585.26
0.2556,0.7444	-2599.55
0.3038,0.6962	-2600.72
0.2318,0.7682	-2572.11
0.2336,0.7664	-2597.14
0.2620,0.7380	-2601.55
0.2316,0.7684	-2593.69
0.2788,0.7212	-2604.58
0.3025,0.6975	-2598.08
0.2197,0.7803	-2578.18
0.2631,0.7369	-2607.72
0.2567,0.7433	-2593.15
0.2336,0.7664	-2576.93
0.3089,0.6911	-2598.03
0.2667,0.7333	-2599.51
0.2184,0.7816	-2574.39
0.2273,0.7727	-2578.07
0.2395,0.7605	-2578.29
0.2332,0.7668	-2599.54
0.3028,0.6972	-2612.29
0.2091,0.7909	-2576.01
0.2431,0.7569	-2576.17
0.2659,0.7341	-2600.51
0.2552,0.7448	-2592.06
0.2486,0.7514	-2586.48
0.3241,0.6759	-2611.96
0.2178,0.7822	-2568.01
0.2602,0.7398	-2590.08
0.2330,0.7670	-2586.45
0.2813,0.7187	-2596.18
0.2818,0.7182	-2603.70
0.2804,0.7196	-2595.18
0.2327,0.7673	-2578.11
0.2209,0.7791	-2585.71
0.2281,0.7719	-2584.16
0.2491,0.7509	-2578.77
0.2628,0.7372	-2594.33
0.2593,0.7407	-2597.40
0.2218,0.7782	-2596.95
0.2139,0.7861	-2586.21
0.2146,0.7854	-2587.45
0.2839,0.7161	-2611.17
0.2715,0.7285	-2592.68
0.3035,0.6965	-2609.83
0.2023,0.7977	-2557.28
0.2205,0.7795	-2583.21
0.2340,0.7660	-2591.17
0.2254,0.7746	-2571.91
0.3217,0.6783	-2615.50
0.2652,0.7348	-2589.30
0.2152,0.7848	-2591.28
0.2352,0.7648	-2574.62
0.2350,0.7650	-2599.40
0.2245,0.7755	-2590.49
0.3076,0.6924	-2611.66
0.2785,0.7215	-2583.63
0.2436,0.7564	-2604.52
0.2265,0.7735	-2594.04
0.2333,0.7667	-2591.20
0.2153,0.7847	-2579.63
0.2639,0.7361	-2582.04
0.2372,0.7628	-2586.39
0.2337,0.7663	-2604.25
0.2316,0.7684	-2590.09
0.2319,0.7681	-2588.87
0.1922,0.8078	-2571.80
0.2654,0.7346	-2598.48
0.2202,0.7798	-2588.28
0.2216,0.7784	-2589.44
0.2288,0.7712	-2573.21
0.2498,0.7502	-2590.91
0.2039,0.7961	-2574.99
0.2371,0.7629	-2581.71
0.2316,0.7684	-2572.10
0.2316,0.7684	-2591.28
0.2325,0.7675	-2590.05
0.2838,0.7162	-2598.21
0.2029,0.7971	-2581.90
0.2430,0.7570	-2568.20
0.2137,0.7863	-2575.80
0.2430,0.7570	-2597.75
0.2353,0.7647	-2588.77
0.2474,0.7526	-2597.58
0.1961,0.8039	-2560.15
0.2560,0.7440	-2600.61
0.2569,0.7431	-2586.78
0.2614,0.7386	-2592.21
0.2278,0.7722	-2576.85
0.2570,0.7430	-2588.91
0.2151,0.7849	-2574.46
0.2379,0.7621	-2585.22
0.2212,0.7788	-2581.92
0.2609,0.7391	-2594.28
0.1959,0.8041	-2554.51
0.2372,0.7628	-2581.71
0.2403,0.7597	-2586.37
0.2213,0.7787	-2586.95
0.2136,0.7864	-2586.24
0.2469,0.7531	-2595.36
0.2322,0.7678	-2588.86
0.2345,0.7655	-2599.44
0.2313,0.7687	-2597.31
0.2673,0.7327	-2595.48
0.2062,0.7938	-2573.50
0.2549,0.7451	-2585.62
0.2233,0.7767	-2578.10
0.2530,0.7470	-2607.19
0.2401,0.7599	-2585.22
0.2659,0.7341	-2594.42
0.1954,0.8046	-2594.14
0.2338,0.7662	-2587.62
0.2634,0.7366	-2587.14
0.2419,0.7581	-2580.67
0.2131,0.7869	-2577.13
0.2518,0.7482	-2576.77
0.2188,0.7812	-2588.39
0.2492,0.7508	-2608.55
0.2812,0.7188	-2590.54
0.2747,0.7253	-2594.82
0.2258,0.7742	-2578.08
0.2871,0.7129	-2602.06
0.2374,0.7626	-2577.05
0.2388,0.7612	-2595.65
0.2649,0.7351	-2604.59
0.2480,0.7520	-2580.92
0.2623,0.7377	-2590.18
0.2557,0.7443	-2584.59
0.2234,0.7766	-2588.07
0.2548,0.7452	-2574.88
0.2678,0.7322	-2599.52
0.2548,0.7452	-2590.98
0.2554,0.7446	-2601.69
0.2599,0.7401	-2601.58
0.2276,0.7724	-2586.62
0.2208,0.7792	-2583.19
0.2375,0.7625	-2589.88
0.2564,0.7436	-2588.89
0.2789,0.7211	-2596.98
0.2785,0.7215	-2603.62
0.2692,0.7308	-2586.56
0.2073,0.7927	-2578.81
0.2409,0.7591	-2604.73
0.2361,0.7639	-2591.10
0.3302,0.6698	-2612.51
0.2872,0.7128	-2601.16
0.2577,0.7423	-2593.17
0.2218,0.7782	-2579.38
0.2605,0.7395	-2593.23
0.2456,0.7544	-2580.81
0.3351,0.6649	-2609.56
0.2705,0.7295	-2600.56
0.2388,0.7612	-2577.10
0.2419,0.7581	-2584.09
0.2586,0.7414	-2584.76
0.2535,0.7465	-2580.15
0.3042,0.6958	-2618.13
0.2847,0.7153	-2602.87
0.2199,0.7801	-2570.58
0.2986,0.7014	-2603.64
0.2529,0.7471	-2599.61
0.2592,0.7408	-2599.50
0.3272,0.6728	-2606.46
0.2643,0.7357	-2584.13
0.2107,0.7893	-2581.22
0.3429,0.6571	-2611.89
0.2611,0.7389	-2587.00
0.2477,0.7523	-2597.57
0.2999,0.7001	-2614.76
0.2405,0.7595	-2589.82
0.2382,0.7618	-2575.91
0.3217,0.6783	-2613.26
0.2609,0.7391	-2594.28
0.2642,0.7358	-2580.02
0.2703,0.7297	-2594.60
0.2620,0.7380	-2604.66
0.2423,0.7577	-2604.62
0.2951,0.7049	-2604.28
0.2935,0.7065	-2601.55
0.2645,0.7355	-2603.58
0.2482,0.7518	-2589.79
0.2639,0.7361	-2593.33
0.2031,0.7969	-2576.42
0.2921,0.7079	-2608.54
0.2860,0.7140	-2600.18
0.2422,0.7578	-2603.49
0.2571,0.7429	-2592.09
0.2335,0.7665	-2586.44
0.2263,0.7737	-2590.37
0.3030,0.6970	-2607.30
0.2900,0.7100	-2596.85
0.2064,0.7936	-2574.83
0.2187,0.7813	-2575.66
0.2593,0.7407	-2595.30
0.2218,0.7782	-2588.17
0.3125,0.6875	-2611.13
0.2527,0.7473	-2596.36
0.2173,0.7827	-2580.82
0.2153,0.7847	-2588.68
0.2744,0.7256	-2582.17
0.2703,0.7297	-2597.58
0.2749,0.7251	-2594.83
0.2086,0.7914	-2572.05
0.1932,0.8068	-2565.98
0.2155,0.7845	-2579.62
0.2636,0.7364	-2595.38
0.2308,0.7692	-2578.08
0.2554,0.7446	-2577.08
0.2221,0.7779	-2589.40
0.2277,0.7723	-2578.07
0.2087,0.7913	-2578.70
0.2819,0.7181	-2589.68
0.2743,0.7257	-2595.77
0.2715,0.7285	-2601.56
0.2238,0.7762	-2579.34
0.2201,0.7799	-2579.43
0.2013,0.7987	-2584.84
0.3196,0.6804	-2616.89
0.2843,0.7157	-2600.08
0.2833,0.7167	-2594.46
0.2696,0.7304	-2594.57
0.2852,0.7148	-2592.78
0.2229,0.7771	-2585.60
0.3219,0.6781	-2619.98
0.2797,0.7203	-2596.08
0.3025,0.6975	-2604.77
0.2474,0.7526	-2599.80
0.2742,0.7258	-2589.93
0.2359,0.7641	-2580.52
0.2842,0.7158	-2593.61
0.2864,0.7136	-2594.73
0.2880,0.7120	-2597.59
0.2406,0.7594	-2599.02
0.2479,0.7521	-2588.68
0.2366,0.7634	-2567.65
0.2824,0.7176	-2597.19
0.3133,0.6867	-2606.46
0.2557,0.7443	-2580.31
0.2692,0.7308	-2583.56
0.2612,0.7388	-2592.21
0.2530,0.7470	-2596.36
0.2333,0.7667	-2585.26
0.2986,0.7014	-2608.77
0.2568,0.7432	-2591.02
0.2398,0.7602	-2584.07
0.2790,0.7210	-2602.68
0.2561,0.7439	-2588.88
0.2492,0.7508	-2599.73
0.2557,0.7443	-2593.14
0.2596,0.7404	-2597.40
0.2705,0.7295	-2583.70
0.2743,0.7257	-2591.88
0.2485,0.7515	-2594.22
0.2418,0.7582	-2589.81
0.2584,0.7416	-2592.12
0.2517,0.7483	-2587.66
0.2649,0.7351	-2595.41
0.2608,0.7392	-2591.15
0.2254,0.7746	-2579.31
0.2779,0.7221	-2598.83
0.2563,0.7437	-2601.66
0.2315,0.7685	-2592.49
0.2368,0.7632	-2574.69
0.2726,0.7274	-2596.67
0.2330,0.7670	-2598.37
0.2626,0.7374	-2598.45
0.2707,0.7293	-2589.66
0.2267,0.7733	-2590.34
0.2368,0.7632	-2580.54
0.2812,0.7188	-2603.68
0.2467,0.7533	-2595.37
0.2930,0.7070	-2598.00
0.2605,0.7395	-2586.97
0.2077,0.7923	-2596.18
0.2347,0.7653	-2587.60
0.2477,0.7523	-2597.57
0.2619,0.7381	-2575.66
0.2747,0.7253	-2614.24
0.2468,0.7532	-2588.67
0.2284,0.7716	-2592.68
0.2813,0.7187	-2595.24
0.2415,0.7585	-2611.55
0.2803,0.7197	-2600.83
0.2346,0.7654	-2588.79
0.2242,0.7758	-2580.57
0.2776,0.7224	-2594.04
0.2688,0.7312	-2596.53
0.2340,0.7660	-2594.74
0.2707,0.7293	-2592.63
0.2640,0.7360	-2613.84
0.2474,0.7526	-2598.69
0.2679,0.7321	-2587.46
0.2915,0.7085	-2600.53
0.2191,0.7809	-2584.55
0.2269,0.7731	-2600.14
0.2605,0.7395	-2607.84
0.2378,0.7622	-2587.55
0.2946,0.7054	-2607.74
