#isoforms=['ENSG00000101294.SE.1.A.up_ENSG00000101294.SE.1.A.SE1_ENSG00000101294.SE.1.A.dn','ENSG00000101294.SE.1.B.up_ENSG00000101294.SE.1.B.dn']	exon_lens=('ENSG00000101294.SE.1.A.up',99),('ENSG00000101294.SE.1.A.SE1',376),('ENSG00000101294.SE.1.A.dn',89),('ENSG00000101294.SE.1.B.up',99),('ENSG00000101294.SE.1.B.dn',89)	iters=5000	burn_in=500	lag=10	percent_accept=86.02	proposal_type=drift	counts=(0,0):481,(1,0):110,(1,1):198	assigned_counts=0:152,1:156	chrom=chr20	strand=+	mRNA_starts=31527484,31527484	mRNA_ends=31545035,31545035
sampled_psi	log_score
0.2343,0.7657	-1956.10
0.2312,0.7688	-1968.12
0.2338,0.7662	-1945.41
0.2279,0.7721	-1948.81
0.2133,0.7867	-1948.78
0.2061,0.7939	-1947.63
0.2280,0.7720	-1947.59
0.2255,0.7745	-1956.17
0.2173,0.7827	-1948.73
0.2278,0.7722	-1954.91
0.2126,0.7874	-1964.50
0.2128,0.7872	-1957.95
0.2105,0.7895	-1942.23
0.2067,0.7933	-1951.64
0.1973,0.8027	-1948.02
0.2407,0.7593	-1963.05
0.2330,0.7670	-1945.37
0.1955,0.8045	-1941.07
0.2366,0.7634	-1958.45
0.2189,0.7811	-1957.63
0.1870,0.8130	-1945.88
0.2428,0.7572	-1951.65
0.1926,0.8074	-1951.21
0.1907,0.8093	-1934.04
0.2531,0.7469	-1946.80
0.1824,0.8176	-1940.30
0.1589,0.8411	-1944.79
0.2188,0.7812	-1958.90
0.1898,0.8102	-1938.41
0.2013,0.7987	-1949.19
0.2170,0.7830	-1952.58
0.1925,0.8075	-1938.31
0.1743,0.8257	-1950.35
0.2373,0.7627	-1949.11
0.2213,0.7787	-1956.27
0.2146,0.7854	-1939.68
0.2016,0.7984	-1954.68
0.1884,0.8116	-1942.85
0.1650,0.8350	-1929.19
0.2364,0.7636	-1959.62
0.2165,0.7835	-1951.31
0.2251,0.7749	-1954.94
0.1902,0.8098	-1952.88
0.1617,0.8383	-1952.54
0.1746,0.8254	-1928.55
0.2377,0.7623	-1954.95
0.2330,0.7670	-1940.61
0.2119,0.7881	-1951.43
0.2082,0.7918	-1948.90
0.1666,0.8334	-1937.11
0.1676,0.8324	-1933.79
0.2372,0.7628	-1956.11
0.2140,0.7860	-1950.07
0.1855,0.8145	-1941.57
0.2244,0.7756	-1958.67
0.1637,0.8363	-1939.09
0.1831,0.8169	-1940.25
0.2304,0.7696	-1953.69
0.2158,0.7842	-1944.87
0.2015,0.7985	-1957.44
0.2499,0.7501	-1960.81
0.2404,0.7596	-1963.06
0.1907,0.8093	-1945.60
0.2020,0.7980	-1945.04
0.2295,0.7705	-1959.74
0.2287,0.7713	-1948.83
0.2318,0.7682	-1951.30
0.2585,0.7415	-1957.86
0.1710,0.8290	-1931.90
0.2254,0.7746	-1936.42
0.1838,0.8162	-1946.16
0.2299,0.7701	-1959.73
0.2207,0.7793	-1934.85
0.2299,0.7701	-1950.06
0.1934,0.8066	-1941.14
0.2288,0.7712	-1957.34
0.1756,0.8244	-1950.15
0.1888,0.8112	-1950.11
0.2126,0.7874	-1950.10
0.2336,0.7664	-1951.34
0.2444,0.7556	-1964.14
0.2745,0.7255	-1973.46
0.1903,0.8097	-1952.86
0.1904,0.8096	-1944.18
0.1977,0.8023	-1939.60
0.2244,0.7756	-1962.39
0.2284,0.7716	-1965.86
0.2603,0.7397	-1954.81
0.2291,0.7709	-1948.83
0.1987,0.8013	-1949.34
0.2109,0.7891	-1948.83
0.1975,0.8025	-1941.00
0.2141,0.7859	-1947.46
0.2720,0.7280	-1944.90
0.2138,0.7862	-1950.07
0.2132,0.7868	-1946.17
0.2277,0.7723	-1952.47
0.2102,0.7898	-1952.82
0.2308,0.7692	-1957.31
0.2008,0.7992	-1939.55
0.2052,0.7948	-1925.99
0.2028,0.7972	-1947.75
0.2457,0.7543	-1949.54
0.2226,0.7774	-1944.98
0.2262,0.7738	-1957.39
0.2167,0.7833	-1951.30
0.1894,0.8106	-1941.33
0.2011,0.7989	-1947.82
0.2302,0.7698	-1951.28
0.2060,0.7940	-1943.58
0.2494,0.7506	-1951.98
0.2263,0.7737	-1961.07
0.1759,0.8241	-1928.49
0.2068,0.7932	-1954.32
0.2276,0.7724	-1953.69
0.1859,0.8141	-1940.06
0.2345,0.7655	-1956.10
0.2552,0.7448	-1964.13
0.2029,0.7971	-1939.53
0.2268,0.7732	-1951.24
0.1918,0.8082	-1945.53
0.2000,0.8000	-1929.86
0.2761,0.7239	-1962.87
0.2138,0.7862	-1955.28
0.2330,0.7670	-1948.95
0.2392,0.7608	-1952.66
0.2117,0.7883	-1950.12
0.2205,0.7795	-1963.88
0.2459,0.7541	-1956.28
0.2372,0.7628	-1961.95
0.2631,0.7369	-1964.28
0.2572,0.7428	-1957.80
0.2172,0.7828	-1946.17
0.2428,0.7572	-1948.24
0.2469,0.7531	-1940.69
0.2388,0.7612	-1959.61
0.2289,0.7711	-1963.41
0.2852,0.7148	-1969.92
0.2152,0.7848	-1944.87
0.2384,0.7616	-1952.64
0.2090,0.7910	-1943.55
0.2629,0.7371	-1969.43
0.2086,0.7914	-1943.56
0.2647,0.7353	-1972.50
0.1983,0.8017	-1952.16
0.2243,0.7757	-1959.92
0.2095,0.7905	-1951.52
0.2489,0.7511	-1946.43
0.2017,0.7983	-1954.67
0.2718,0.7282	-1964.59
0.2421,0.7579	-1932.21
0.2200,0.7800	-1952.52
0.2283,0.7717	-1947.60
0.2408,0.7592	-1961.90
0.2173,0.7827	-1947.45
0.2526,0.7474	-1956.52
0.2559,0.7441	-1974.81
0.2349,0.7651	-1958.46
0.2179,0.7821	-1941.06
0.2172,0.7828	-1958.99
0.1846,0.8154	-1932.72
0.2371,0.7629	-1965.46
0.2675,0.7325	-1960.39
0.2242,0.7758	-1947.51
0.2131,0.7869	-1955.31
0.2246,0.7754	-1951.23
0.2018,0.7982	-1946.41
0.2592,0.7408	-1955.79
0.2437,0.7563	-1952.82
0.2099,0.7901	-1954.15
0.2160,0.7840	-1939.72
0.1861,0.8139	-1935.63
0.2045,0.7955	-1947.68
0.2926,0.7074	-1968.52
0.2699,0.7301	-1954.56
0.1905,0.8095	-1944.17
0.2533,0.7467	-1953.31
0.2239,0.7761	-1945.02
0.1884,0.8116	-1937.01
0.2743,0.7257	-1963.73
0.2436,0.7564	-1960.75
0.1873,0.8127	-1957.60
0.2524,0.7476	-1953.25
0.1871,0.8129	-1939.99
0.1868,0.8132	-1954.72
0.2467,0.7533	-1958.53
0.2476,0.7524	-1951.88
0.2475,0.7525	-1948.54
0.2482,0.7518	-1947.49
0.2156,0.7844	-1941.00
0.2137,0.7863	-1953.98
0.2398,0.7602	-1950.38
0.2077,0.7923	-1952.94
0.2524,0.7476	-1952.17
0.2252,0.7748	-1940.11
0.1939,0.8061	-1953.95
0.2557,0.7443	-1959.87
0.2356,0.7644	-1953.75
0.2110,0.7890	-1950.14
0.2639,0.7361	-1962.25
0.2343,0.7657	-1954.91
0.1735,0.8265	-1941.09
0.2550,0.7450	-1973.78
0.2874,0.7126	-1968.21
0.2162,0.7838	-1931.99
0.2066,0.7934	-1948.96
0.2351,0.7649	-1943.12
0.1806,0.8194	-1944.97
0.2631,0.7369	-1959.14
0.2874,0.7126	-1969.12
0.2310,0.7690	-1958.51
0.2056,0.7944	-1928.72
0.2171,0.7829	-1935.91
0.1843,0.8157	-1926.78
0.2423,0.7577	-1943.65
0.2804,0.7196	-1967.86
0.1932,0.8068	-1938.29
0.1930,0.8070	-1936.87
0.2123,0.7877	-1940.93
0.2275,0.7725	-1956.14
0.2668,0.7332	-1970.46
0.2926,0.7074	-1975.58
0.1848,0.8152	-1947.56
0.2351,0.7649	-1959.64
0.1804,0.8196	-1944.99
0.2160,0.7840	-1946.16
0.2812,0.7188	-1966.95
0.2793,0.7207	-1963.07
0.1575,0.8425	-1926.61
0.2206,0.7794	-1951.25
0.2125,0.7875	-1947.48
0.2307,0.7693	-1947.67
0.2026,0.7974	-1936.80
0.2821,0.7179	-1974.47
0.2201,0.7799	-1947.46
0.2363,0.7637	-1960.80
0.2296,0.7704	-1953.69
0.2380,0.7620	-1960.77
0.2179,0.7821	-1951.28
0.3020,0.6980	-1961.66
0.2217,0.7783	-1956.26
0.2082,0.7918	-1958.25
0.2184,0.7816	-1953.82
0.1921,0.8079	-1942.63
0.2430,0.7570	-1945.98
0.2480,0.7520	-1953.02
0.2429,0.7571	-1956.20
0.1904,0.8096	-1951.41
0.2304,0.7696	-1941.63
0.1970,0.8030	-1943.83
0.2453,0.7547	-1950.64
0.2449,0.7551	-1955.12
0.2618,0.7382	-1967.36
0.1872,0.8128	-1941.46
0.2022,0.7978	-1949.15
0.2173,0.7827	-1951.29
0.2603,0.7397	-1968.39
0.2528,0.7472	-1950.02
0.2652,0.7348	-1956.19
0.2000,0.8000	-1949.26
0.1890,0.8110	-1934.07
0.2419,0.7581	-1950.47
0.2493,0.7507	-1963.00
0.2490,0.7510	-1960.79
0.2339,0.7661	-1956.09
0.1967,0.8033	-1956.50
0.1832,0.8168	-1929.78
0.2084,0.7916	-1944.89
0.2695,0.7305	-1958.51
0.2259,0.7741	-1959.86
0.2444,0.7556	-1955.11
0.1946,0.8054	-1938.26
0.1772,0.8228	-1931.51
0.2034,0.7966	-1943.63
0.2452,0.7548	-1957.38
0.2142,0.7858	-1939.66
0.2419,0.7581	-1945.90
0.2056,0.7944	-1948.99
0.2005,0.7995	-1936.79
0.1956,0.8044	-1929.75
0.2561,0.7439	-1963.08
0.2420,0.7580	-1945.91
0.2273,0.7727	-1953.69
0.2234,0.7766	-1937.52
0.1730,0.8270	-1963.06
0.2155,0.7845	-1943.58
0.2617,0.7383	-1956.99
0.2271,0.7729	-1946.34
0.2502,0.7498	-1953.13
0.2337,0.7663	-1945.41
0.2070,0.7930	-1939.54
0.1928,0.8072	-1931.14
0.2289,0.7711	-1958.55
0.2315,0.7685	-1957.30
0.2319,0.7681	-1952.50
0.1986,0.8014	-1950.74
0.1872,0.8128	-1950.27
0.2202,0.7798	-1929.75
0.2040,0.7960	-1955.87
0.2444,0.7556	-1960.75
0.2375,0.7625	-1964.28
0.2223,0.7777	-1954.99
0.1859,0.8141	-1937.11
0.2439,0.7561	-1961.88
0.2165,0.7835	-1951.31
0.2890,0.7110	-1967.40
0.2362,0.7638	-1959.63
0.2364,0.7636	-1954.93
0.2186,0.7814	-1965.29
0.2297,0.7703	-1950.06
0.2359,0.7641	-1949.05
0.2812,0.7188	-1969.77
0.2303,0.7697	-1948.87
0.2338,0.7662	-1962.03
0.2037,0.7963	-1946.35
0.2337,0.7663	-1951.34
0.2295,0.7705	-1957.32
0.2333,0.7667	-1956.09
0.2621,0.7379	-1968.40
0.2221,0.7779	-1953.74
0.2072,0.7928	-1946.25
0.2025,0.7975	-1934.05
0.2399,0.7601	-1954.99
0.2340,0.7660	-1951.35
0.2597,0.7403	-1961.06
0.2524,0.7476	-1952.16
0.2208,0.7792	-1955.03
0.2187,0.7813	-1948.72
0.2263,0.7737	-1950.01
0.2320,0.7680	-1957.29
0.2379,0.7621	-1944.48
0.2097,0.7903	-1948.86
0.2553,0.7447	-1956.64
0.2210,0.7790	-1960.06
0.2671,0.7329	-1971.47
0.1904,0.8096	-1947.07
0.2342,0.7658	-1971.50
0.2175,0.7825	-1937.21
0.2396,0.7604	-1963.07
0.2576,0.7424	-1966.28
0.2566,0.7434	-1962.02
0.1988,0.8012	-1952.13
0.2398,0.7602	-1953.84
0.2106,0.7894	-1950.15
0.2351,0.7649	-1946.66
0.2481,0.7519	-1957.46
0.2340,0.7660	-1947.79
0.2196,0.7804	-1961.40
0.2069,0.7931	-1948.94
0.2211,0.7789	-1960.06
0.2258,0.7742	-1942.61
0.2595,0.7405	-1949.52
0.2264,0.7736	-1948.78
0.2207,0.7793	-1937.37
0.2077,0.7923	-1943.56
0.2229,0.7771	-1949.98
0.2365,0.7635	-1938.53
0.2603,0.7397	-1964.21
0.2105,0.7895	-1934.29
0.2120,0.7880	-1943.55
0.1779,0.8221	-1939.13
0.2541,0.7459	-1951.20
0.2262,0.7738	-1951.24
0.2108,0.7892	-1939.59
0.1880,0.8120	-1928.24
0.1749,0.8251	-1953.36
0.1902,0.8098	-1922.46
0.2326,0.7674	-1954.90
0.2449,0.7551	-1961.88
0.2444,0.7556	-1965.27
0.1796,0.8204	-1951.15
0.1934,0.8066	-1939.71
0.1894,0.8106	-1944.24
0.2430,0.7570	-1948.25
0.2350,0.7650	-1951.38
0.2367,0.7633	-1961.96
0.2074,0.7926	-1947.59
0.2021,0.7979	-1940.91
0.2154,0.7846	-1939.70
0.2378,0.7622	-1966.60
0.2322,0.7678	-1948.92
0.2164,0.7836	-1935.87
0.2045,0.7955	-1949.04
0.1909,0.8091	-1935.48
0.2348,0.7652	-1953.73
0.2291,0.7709	-1960.97
0.2654,0.7346	-1959.26
0.2302,0.7698	-1951.28
0.2120,0.7880	-1944.86
0.2160,0.7840	-1947.45
0.2267,0.7733	-1932.83
0.2497,0.7503	-1958.60
0.3096,0.6904	-1967.43
0.2373,0.7627	-1954.95
0.1947,0.8053	-1953.87
0.2187,0.7813	-1957.64
0.2234,0.7766	-1933.79
0.2281,0.7719	-1957.35
0.2744,0.7256	-1958.87
0.2232,0.7768	-1958.72
0.1969,0.8031	-1936.80
0.2420,0.7580	-1952.76
0.2548,0.7452	-1961.98
0.2650,0.7350	-1962.30
0.2613,0.7387	-1952.80
0.2181,0.7819	-1958.94
0.2125,0.7875	-1944.86
0.2081,0.7919	-1946.23
0.2517,0.7483	-1947.76
0.2605,0.7395	-1966.31
0.2219,0.7781	-1946.22
0.2154,0.7846	-1950.04
0.2242,0.7758	-1949.99
0.2237,0.7763	-1961.19
0.2212,0.7788	-1938.66
0.2721,0.7279	-1963.62
0.2183,0.7817	-1942.35
0.1785,0.8215	-1934.50
0.2393,0.7607	-1956.14
0.2128,0.7872	-1938.32
0.2195,0.7805	-1937.30
0.2643,0.7357	-1970.46
0.2385,0.7615	-1957.29
0.1640,0.8360	-1930.91
0.2186,0.7814	-1951.27
0.2004,0.7996	-1940.94
0.2048,0.7952	-1959.88
0.3026,0.6974	-1962.56
0.2508,0.7492	-1961.92
0.2057,0.7943	-1953.05
0.2025,0.7975	-1938.17
0.2085,0.7915	-1947.56
0.2316,0.7684	-1946.51
0.2786,0.7214	-1961.12
0.2343,0.7657	-1959.65
0.2109,0.7891	-1939.59
0.2038,0.7962	-1947.71
0.2156,0.7844	-1961.66
0.2312,0.7688	-1939.28
0.2939,0.7061	-1968.61
0.2508,0.7492	-1949.88
0.2344,0.7656	-1956.10
0.1969,0.8031	-1939.62
0.2260,0.7740	-1942.62
0.2228,0.7772	-1952.48
0.2655,0.7345	-1964.35
0.2259,0.7741	-1953.70
0.2403,0.7597	-1965.36
0.2078,0.7922	-1940.88
0.1934,0.8066	-1942.57
0.2867,0.7133	-1966.34
0.2605,0.7395	-1951.70
0.2255,0.7745	-1938.90
0.1875,0.8125	-1951.70
0.1892,0.8108	-1944.25
0.1795,0.8205	-1943.56
0.2833,0.7167	-1960.56
0.2709,0.7291	-1965.54
0.2112,0.7888	-1956.72
0.2193,0.7807	-1956.34
0.1902,0.8098	-1949.99
0.1956,0.8044	-1945.30
0.2877,0.7123	-1972.76
0.2719,0.7281	-1956.71
0.2070,0.7930	-1951.63
0.1976,0.8024	-1945.20
0.2282,0.7718	-1956.13
0.2061,0.7939	-1940.88
0.2719,0.7281	-1954.75
0.2981,0.7019	-1964.61
0.1960,0.8040	-1943.87
0.2286,0.7714	-1975.58
0.2422,0.7578	-1949.34
0.2076,0.7924	-1931.51
0.2741,0.7259	-1964.69
0.3000,0.7000	-1964.80
0.2009,0.7991	-1929.89
0.2440,0.7560	-1964.14
0.2368,0.7632	-1959.62
0.2079,0.7921	-1938.21
0.1999,0.8001	-1935.40
0.2632,0.7368	-1962.23
0.1875,0.8125	-1942.90
0.2300,0.7700	-1958.52
0.2425,0.7575	-1960.75
0.2196,0.7804	-1944.92
0.2527,0.7473	-1957.61
0.2527,0.7473	-1965.20
0.2046,0.7954	-1939.53
0.2008,0.7992	-1945.07
0.2136,0.7864	-1943.56
0.2296,0.7704	-1948.85
0.2603,0.7397	-1966.30
0.2473,0.7527	-1968.56
0.2360,0.7640	-1952.58
0.2006,0.7994	-1964.44
0.1918,0.8082	-1942.65
0.2293,0.7707	-1952.48
0.2297,0.7703	-1946.43
0.2540,0.7460	-1973.82
0.2296,0.7704	-1936.74
0.2291,0.7709	-1948.84
0.2271,0.7729	-1936.55
0.2658,0.7342	-1955.22
0.2198,0.7802	-1952.52
0.2569,0.7431	-1969.46
0.2857,0.7143	-1980.03
0.2042,0.7958	-1938.17
0.2500,0.7500	-1948.72
0.2700,0.7300	-1957.55
0.2345,0.7655	-1950.18
0.2940,0.7060	-1958.97
0.2617,0.7383	-1955.95
0.2298,0.7702	-1951.27
0.2155,0.7845	-1951.33
0.2857,0.7143	-1964.45
0.2326,0.7674	-1953.71
0.2500,0.7500	-1973.99
0.2430,0.7570	-1947.11
0.2062,0.7938	-1935.49
0.2185,0.7815	-1962.74
0.2350,0.7650	-1956.10
0.2157,0.7843	-1951.33
0.2425,0.7575	-1958.47
0.1974,0.8026	-1938.20
0.1935,0.8065	-1939.71
0.2109,0.7891	-1954.11
0.2114,0.7886	-1942.23
0.2442,0.7558	-1935.89
0.2298,0.7702	-1953.69
0.2065,0.7935	-1940.88
0.2169,0.7831	-1937.18
0.2267,0.7733	-1954.92
0.2211,0.7789	-1949.98
0.2213,0.7787	-1952.50
0.2308,0.7692	-1941.66
0.2521,0.7479	-1940.18
0.1731,0.8269	-1938.01
0.2150,0.7850	-1959.11
0.2469,0.7531	-1950.73
0.1931,0.8069	-1932.58
0.2255,0.7745	-1953.70
0.2638,0.7362	-1959.17
0.2172,0.7828	-1946.17
0.2092,0.7908	-1936.90
0.2528,0.7472	-1961.94
0.1984,0.8016	-1947.96
0.2354,0.7646	-1954.92
0.2393,0.7607	-1943.41
0.2105,0.7895	-1960.73
0.2231,0.7769	-1944.99
0.2687,0.7313	-1960.46
0.1954,0.8046	-1935.41
0.2202,0.7798	-1946.19
0.2299,0.7701	-1954.90
0.2081,0.7919	-1944.89
0.2056,0.7944	-1942.24
0.2583,0.7417	-1954.68
0.2128,0.7872	-1951.40
0.2300,0.7700	-1960.94
0.2075,0.7925	-1950.26
0.2260,0.7740	-1951.24
0.2432,0.7568	-1952.80
0.2322,0.7678	-1948.92
0.2244,0.7756	-1966.11
0.2231,0.7769	-1943.75
0.1939,0.8061	-1942.55
0.1990,0.8010	-1947.93
0.2349,0.7651	-1947.83
0.1974,0.8026	-1946.62
0.2193,0.7807	-1947.45
0.2275,0.7725	-1943.91
0.1946,0.8054	-1943.94
0.2199,0.7801	-1962.65
0.2628,0.7372	-1956.02
0.1973,0.8027	-1936.80
0.2033,0.7967	-1940.90
0.2594,0.7406	-1969.44
0.2064,0.7936	-1950.31
0.1921,0.8079	-1935.45
0.2374,0.7626	-1958.45
0.2164,0.7836	-1950.02
0.2140,0.7860	-1938.36
0.2620,0.7380	-1959.07
0.2031,0.7969	-1950.47
0.2129,0.7871	-1940.94
0.2230,0.7770	-1962.47
0.2426,0.7574	-1950.50
0.2235,0.7765	-1956.21
0.2496,0.7504	-1956.40
0.1990,0.8010	-1950.72
0.2213,0.7787	-1953.76
0.2382,0.7618	-1956.12
0.2002,0.7998	-1956.17
0.2254,0.7746	-1956.17
0.2531,0.7469	-1957.62
0.1979,0.8021	-1931.20
0.2364,0.7636	-1953.76
0.2195,0.7805	-1947.45
0.2328,0.7672	-1957.29
0.2198,0.7802	-1948.72
0.2731,0.7269	-1970.52
0.1981,0.8019	-1949.38
0.2585,0.7415	-1959.96
0.1926,0.8074	-1936.88
0.2043,0.7957	-1958.57
0.2140,0.7860	-1937.06
0.2875,0.7125	-1973.66
0.1647,0.8353	-1937.34
0.2670,0.7330	-1959.36
0.2376,0.7624	-1959.61
0.2347,0.7653	-1965.55
0.1892,0.8108	-1934.07
0.2750,0.7250	-1961.83
0.1792,0.8208	-1945.11
0.2825,0.7175	-1972.61
0.2140,0.7860	-1947.46
0.2378,0.7622	-1950.30
0.2475,0.7525	-1959.66
0.2281,0.7719	-1943.94
0.1754,0.8246	-1925.42
0.2500,0.7500	-1956.41
0.2026,0.7974	-1940.91
0.2490,0.7510	-1954.17
0.2744,0.7256	-1962.76
0.2346,0.7654	-1950.19
0.1886,0.8114	-1945.75
0.2805,0.7195	-1967.86
0.2032,0.7968	-1964.13
0.2606,0.7394	-1968.39
0.2383,0.7617	-1971.23
0.2383,0.7617	-1949.15
0.1970,0.8030	-1948.04
0.2419,0.7581	-1955.04
0.2277,0.7723	-1948.81
0.2405,0.7595	-1946.96
0.2087,0.7913	-1922.23
0.2440,0.7560	-1957.36
0.1991,0.8009	-1939.57
0.1962,0.8038	-1957.97
0.2403,0.7597	-1952.70
0.2335,0.7665	-1948.96
0.2206,0.7794	-1951.25
0.2370,0.7630	-1949.09
0.2098,0.7902	-1946.20
0.2249,0.7751	-1953.71
0.2404,0.7596	-1944.65
0.2287,0.7713	-1954.90
0.2064,0.7936	-1939.54
0.2296,0.7704	-1946.43
0.2249,0.7751	-1967.32
0.1993,0.8007	-1928.45
0.2428,0.7572	-1953.93
0.2444,0.7556	-1956.24
0.1988,0.8012	-1947.94
0.2078,0.7922	-1948.92
0.2350,0.7650	-1958.46
0.2201,0.7799	-1960.11
0.2674,0.7326	-1966.43
0.2425,0.7575	-1951.64
0.2138,0.7862	-1948.77
0.1716,0.8284	-1936.58
0.2600,0.7400	-1945.38
0.2343,0.7657	-1951.36
0.2613,0.7387	-1960.08
0.2278,0.7722	-1942.70
0.2220,0.7780	-1946.22
0.1466,0.8534	-1929.83
0.2763,0.7237	-1961.92
0.2516,0.7484	-1954.29
0.2211,0.7789	-1948.73
0.2529,0.7471	-1960.86
0.2279,0.7721	-1942.71
0.1398,0.8602	-1943.82
0.2864,0.7136	-1969.98
0.2636,0.7364	-1963.27
0.2140,0.7860	-1953.97
0.2606,0.7394	-1956.92
0.2271,0.7729	-1942.67
0.1625,0.8375	-1937.62
0.2772,0.7228	-1971.56
0.2441,0.7559	-1951.71
0.1971,0.8029	-1933.99
0.2527,0.7473	-1960.86
0.2359,0.7641	-1950.22
0.1908,0.8092	-1939.81
0.2298,0.7702	-1953.69
0.2838,0.7162	-1955.98
0.2235,0.7765	-1947.50
0.2061,0.7939	-1954.37
0.2396,0.7604	-1950.37
0.2183,0.7817	-1948.72
0.2162,0.7838	-1946.16
0.2076,0.7924	-1943.56
0.2388,0.7612	-1960.77
0.2131,0.7869	-1951.39
0.2354,0.7646	-1949.03
0.2195,0.7805	-1949.99
0.2167,0.7833	-1941.02
0.2172,0.7828	-1952.58
0.2511,0.7489	-1957.55
0.2071,0.7929	-1939.54
0.2323,0.7677	-1959.68
0.1928,0.8072	-1945.47
0.2195,0.7805	-1948.72
0.1839,0.8161	-1943.17
0.2333,0.7667	-1953.72
0.2120,0.7880	-1952.74
0.2646,0.7354	-1964.32
0.1787,0.8213	-1936.02
0.2240,0.7760	-1953.72
0.2305,0.7695	-1950.08
0.2236,0.7764	-1949.99
0.2271,0.7729	-1947.57
0.3142,0.6858	-1963.24
0.1838,0.8162	-1934.23
0.2543,0.7457	-1954.44
0.2305,0.7695	-1942.84
0.2254,0.7746	-1940.12
0.2408,0.7592	-1957.31
0.3016,0.6984	-1968.32
0.2321,0.7679	-1947.72
0.2749,0.7251	-1968.61
0.2412,0.7588	-1950.44
0.2359,0.7641	-1949.05
0.2057,0.7943	-1944.94
0.2565,0.7435	-1957.76
0.2054,0.7946	-1954.41
0.2360,0.7640	-1939.66
0.2576,0.7424	-1965.22
0.2067,0.7933	-1944.92
0.2057,0.7943	-1959.79
0.2634,0.7366	-1949.89
0.1912,0.8088	-1935.47
0.2294,0.7706	-1950.05
0.2426,0.7574	-1959.61
0.2764,0.7236	-1972.51
0.2033,0.7967	-1934.07
0.2007,0.7993	-1940.93
0.1955,0.8045	-1939.65
0.2399,0.7601	-1960.76
0.2367,0.7633	-1961.96
0.2491,0.7509	-1961.90
0.2216,0.7784	-1956.27
0.2046,0.7954	-1940.89
0.2417,0.7583	-1965.32
0.2257,0.7743	-1948.77
0.2500,0.7500	-1961.91
0.2412,0.7588	-1961.90
0.2037,0.7963	-1939.53
0.2160,0.7840	-1956.47
0.2602,0.7398	-1949.58
0.1995,0.8005	-1940.96
0.2402,0.7598	-1957.30
0.2392,0.7608	-1950.35
0.2083,0.7917	-1946.23
0.2355,0.7645	-1951.39
0.2309,0.7691	-1953.69
0.1946,0.8054	-1928.31
0.2568,0.7432	-1956.71
0.2154,0.7846	-1961.67
0.2207,0.7793	-1958.82
0.2699,0.7301	-1971.48
0.2107,0.7893	-1946.19
0.2067,0.7933	-1946.26
0.2416,0.7584	-1948.17
0.1832,0.8168	-1940.24
0.2118,0.7882	-1947.49
0.2249,0.7751	-1952.47
0.2205,0.7795	-1941.15
0.2124,0.7876	-1939.62
0.2427,0.7573	-1953.92
0.2016,0.7984	-1945.05
0.2322,0.7678	-1938.16
0.2637,0.7363	-1953.00
0.2242,0.7758	-1937.57
0.1857,0.8143	-1950.43
0.2651,0.7349	-1950.07
0.2265,0.7735	-1951.24
0.2536,0.7464	-1956.56
0.2448,0.7552	-1953.99
0.2420,0.7580	-1958.47
0.2239,0.7761	-1947.50
0.2582,0.7418	-1964.17
0.2030,0.7970	-1934.06
0.2422,0.7578	-1952.77
0.2454,0.7546	-1951.77
0.2123,0.7877	-1940.93
0.2245,0.7755	-1943.79
0.2545,0.7455	-1963.05
0.2164,0.7836	-1929.43
0.2308,0.7692	-1960.92
0.2117,0.7883	-1958.01
0.2282,0.7718	-1946.38
0.2399,0.7601	-1958.45
0.2512,0.7488	-1957.55
0.2350,0.7650	-1954.92
0.2237,0.7763	-1952.48
0.2048,0.7952	-1947.67
0.1944,0.8056	-1936.84
0.2341,0.7659	-1953.72
0.2250,0.7750	-1938.87
0.1904,0.8096	-1944.17
0.2384,0.7616	-1953.80
0.2102,0.7898	-1940.90
0.2168,0.7832	-1947.45
0.2196,0.7804	-1956.33
0.2265,0.7735	-1948.78
0.1963,0.8037	-1948.09
0.2514,0.7486	-1952.10
0.1918,0.8082	-1944.09
0.2039,0.7961	-1944.98
0.2280,0.7720	-1950.03
0.2208,0.7792	-1956.29
0.2200,0.7800	-1956.32
0.2587,0.7413	-1962.08
0.2014,0.7986	-1949.19
0.1847,0.8153	-1957.95
0.2347,0.7653	-1947.82
0.2155,0.7845	-1943.58
0.2230,0.7770	-1958.72
0.2673,0.7327	-1954.33
0.2251,0.7749	-1954.94
0.1816,0.8184	-1938.85
0.2377,0.7623	-1950.29
0.2276,0.7724	-1936.59
0.2367,0.7633	-1954.94
0.2543,0.7457	-1953.36
0.2166,0.7834	-1952.59
0.1965,0.8035	-1936.81
0.2312,0.7688	-1958.50
0.2199,0.7801	-1953.79
0.2218,0.7782	-1936.18
0.2045,0.7955	-1936.81
0.2189,0.7811	-1961.44
0.2414,0.7586	-1956.17
0.2332,0.7668	-1947.76
0.2358,0.7642	-1946.69
0.2352,0.7648	-1953.74
0.1975,0.8025	-1962.03
0.2329,0.7671	-1960.86
0.1971,0.8029	-1950.85
0.2405,0.7595	-1958.46
0.2632,0.7368	-1955.02
0.2463,0.7537	-1959.64
0.1727,0.8273	-1941.18
0.2103,0.7897	-1939.58
0.2104,0.7896	-1950.16
0.2842,0.7158	-1962.49
0.2437,0.7563	-1959.62
0.2591,0.7409	-1956.84
0.1976,0.8024	-1946.61
0.2225,0.7775	-1952.49
0.2163,0.7837	-1953.89
0.3164,0.6836	-1967.39
0.2427,0.7573	-1958.47
0.2482,0.7518	-1957.46
0.2110,0.7890	-1964.65
0.2355,0.7645	-1957.28
0.2407,0.7593	-1957.31
0.2689,0.7311	-1963.47
0.1901,0.8099	-1929.70
0.2453,0.7547	-1947.27
0.2229,0.7771	-1946.24
0.2154,0.7846	-1959.09
0.2436,0.7564	-1967.55
0.2237,0.7763	-1958.70
0.1805,0.8195	-1949.52
0.2136,0.7864	-1952.68
0.1906,0.8094	-1949.95
0.2444,0.7556	-1956.24
0.2170,0.7830	-1950.01
0.1936,0.8064	-1934.00
0.2095,0.7905	-1944.88
0.2172,0.7828	-1948.73
0.2083,0.7917	-1942.22
0.2688,0.7312	-1955.46
0.1990,0.8010	-1945.14
0.2062,0.7938	-1942.23
0.2001,0.7999	-1949.26
0.2249,0.7751	-1952.47
0.2111,0.7889	-1946.18
0.2425,0.7575	-1975.56
0.2004,0.7996	-1938.17
0.2162,0.7838	-1943.59
0.2101,0.7899	-1947.52
0.2274,0.7726	-1936.57
0.2373,0.7627	-1943.27
0.3274,0.6726	-1975.26
0.1873,0.8127	-1947.33
0.2477,0.7523	-1960.78
0.1970,0.8030	-1942.42
0.2097,0.7903	-1958.14
0.1943,0.8057	-1932.57
0.3261,0.6739	-1975.14
0.2294,0.7706	-1940.36
0.2820,0.7180	-1964.19
0.1806,0.8194	-1928.34
0.2606,0.7394	-1962.14
0.1982,0.8018	-1945.18
0.2626,0.7374	-1963.24
0.2498,0.7502	-1970.70
0.2445,0.7555	-1959.62
0.1836,0.8164	-1944.69
0.2578,0.7422	-1961.00
0.2479,0.7521	-1967.44
0.2378,0.7622	-1960.78
0.2705,0.7295	-1970.49
0.2210,0.7790	-1951.24
0.2264,0.7736	-1948.78
0.2602,0.7398	-1977.80
0.2498,0.7502	-1953.10
0.2167,0.7833	-1944.88
0.2429,0.7571	-1958.48
0.2164,0.7836	-1962.89
0.2430,0.7570	-1957.34
0.2664,0.7336	-1969.45
0.2224,0.7776	-1942.47
0.1973,0.8027	-1946.62
0.2427,0.7573	-1941.41
0.1913,0.8087	-1942.68
0.2515,0.7485	-1951.02
0.2583,0.7417	-1954.68
0.2054,0.7946	-1938.18
0.2126,0.7874	-1940.93
0.2118,0.7882	-1952.75
0.2032,0.7968	-1955.93
0.2832,0.7168	-1966.13
0.2784,0.7216	-1966.82
0.2093,0.7907	-1932.92
0.2120,0.7880	-1942.24
0.2037,0.7963	-1944.98
0.2014,0.7986	-1954.70
0.2754,0.7246	-1967.66
0.2682,0.7318	-1961.43
0.2392,0.7608	-1950.35
0.2004,0.7996	-1935.40
0.2407,0.7593	-1953.86
0.1861,0.8139	-1940.06
0.2661,0.7339	-1961.33
0.2923,0.7077	-1966.73
0.2620,0.7380	-1955.97
0.2476,0.7524	-1973.00
0.2244,0.7756	-1961.15
0.1669,0.8331	-1948.33
0.2718,0.7282	-1972.47
0.2768,0.7232	-1957.15
0.3048,0.6952	-1961.18
0.2692,0.7308	-1958.49
0.2478,0.7522	-1956.34
0.1731,0.8269	-1938.01
0.2390,0.7610	-1951.50
0.2500,0.7500	-1965.20
0.2921,0.7079	-1980.88
0.2551,0.7449	-1942.70
0.2467,0.7533	-1954.07
0.1846,0.8154	-1946.09
0.2137,0.7863	-1948.77
0.2409,0.7591	-1958.46
0.2803,0.7197	-1965.97
0.2614,0.7386	-1954.89
0.2851,0.7149	-1966.25
0.1691,0.8309	-1938.42
0.2477,0.7523	-1955.22
0.2439,0.7561	-1955.09
0.2673,0.7327	-1960.38
0.2492,0.7508	-1955.28
0.2690,0.7310	-1950.48
0.2142,0.7858	-1944.86
0.1962,0.8038	-1942.45
0.2748,0.7252	-1965.70
0.2549,0.7451	-1959.84
0.2324,0.7676	-1948.93
0.2806,0.7194	-1961.28
0.2210,0.7790	-1942.43
0.2080,0.7920	-1963.62
0.2632,0.7368	-1962.23
0.2516,0.7484	-1966.29
0.2567,0.7433	-1956.71
0.2509,0.7491	-1946.61
0.2039,0.7961	-1943.62
0.1914,0.8086	-1951.32
0.2312,0.7688	-1929.67
0.2124,0.7876	-1944.86
0.2471,0.7529	-1948.51
0.2793,0.7207	-1960.23
0.2205,0.7795	-1958.82
0.1838,0.8162	-1947.65
0.2292,0.7708	-1957.33
0.2634,0.7366	-1961.21
0.2311,0.7689	-1944.08
0.2287,0.7713	-1954.90
0.2371,0.7629	-1947.93
0.1865,0.8135	-1937.08
0.2179,0.7821	-1950.00
0.2266,0.7734	-1963.52
0.1941,0.8059	-1932.57
0.2361,0.7639	-1958.45
0.1875,0.8125	-1950.24
0.2386,0.7614	-1954.97
0.2084,0.7916	-1942.22
0.2051,0.7949	-1959.85
0.2043,0.7957	-1946.33
0.2421,0.7579	-1953.90
0.2017,0.7983	-1942.29
0.2724,0.7276	-1964.62
0.1907,0.8093	-1948.49
0.2200,0.7800	-1942.39
0.2366,0.7634	-1958.45
0.2311,0.7689	-1941.68
0.2250,0.7750	-1943.81
0.2437,0.7563	-1967.55
0.1843,0.8157	-1943.14
0.2194,0.7806	-1942.38
0.2323,0.7677	-1957.29
0.2338,0.7662	-1957.28
0.2061,0.7939	-1954.37
0.2567,0.7433	-1959.90
0.2113,0.7887	-1944.87
0.2058,0.7942	-1936.83
0.2270,0.7730	-1953.69
0.2302,0.7698	-1947.66
0.2312,0.7688	-1930.86
0.2648,0.7352	-1961.27
0.2304,0.7696	-1950.08
0.1918,0.8082	-1948.40
0.1900,0.8100	-1941.30
0.2144,0.7856	-1952.65
0.2320,0.7680	-1953.70
0.2501,0.7499	-1955.32
0.2027,0.7973	-1947.75
0.1821,0.8179	-1950.84
0.1917,0.8083	-1945.53
0.2128,0.7872	-1950.09
0.2528,0.7472	-1957.61
0.2071,0.7929	-1954.31
0.1976,0.8024	-1943.80
0.1753,0.8247	-1954.84
0.1912,0.8088	-1941.24
0.2254,0.7746	-1958.64
0.3029,0.6971	-1969.27
0.2083,0.7917	-1935.55
0.2517,0.7483	-1959.75
0.1735,0.8265	-1925.48
0.1938,0.8062	-1935.43
0.2145,0.7855	-1950.06
0.2703,0.7297	-1962.54
0.2083,0.7917	-1952.90
0.2330,0.7670	-1946.56
0.2089,0.7911	-1940.89
0.2209,0.7791	-1957.55
0.2689,0.7311	-1961.47
0.2266,0.7734	-1950.01
0.2275,0.7725	-1947.58
0.2157,0.7843	-1948.74
0.2282,0.7718	-1948.82
0.2300,0.7700	-1963.36
0.2667,0.7333	-1971.47
0.2209,0.7791	-1948.72
0.2229,0.7771	-1947.49
0.2205,0.7795	-1946.20
0.2375,0.7625	-1949.12
0.2494,0.7506	-1947.58
0.2366,0.7634	-1949.08
0.2430,0.7570	-1952.80
0.2593,0.7407	-1954.75
0.2428,0.7572	-1960.75
0.2257,0.7743	-1946.30
0.2754,0.7246	-1948.31
0.2204,0.7796	-1958.83
0.2403,0.7597	-1942.34
0.2656,0.7344	-1948.08
0.2265,0.7735	-1948.78
0.2025,0.7975	-1938.17
0.2566,0.7434	-1964.15
0.2489,0.7511	-1960.79
0.2580,0.7420	-1970.51
0.2441,0.7559	-1956.23
0.2124,0.7876	-1950.10
0.2542,0.7458	-1955.51
0.2466,0.7534	-1957.42
0.2431,0.7569	-1963.02
0.2516,0.7484	-1954.30
0.2014,0.7986	-1942.30
0.1956,0.8044	-1943.89
0.2329,0.7671	-1957.29
0.2235,0.7765	-1963.68
0.2192,0.7808	-1937.29
0.2498,0.7502	-1955.31
0.1911,0.8089	-1944.13
0.1997,0.8003	-1957.61
0.1871,0.8129	-1945.87
0.2229,0.7771	-1946.24
0.2160,0.7840	-1955.19
0.2330,0.7670	-1957.29
0.1875,0.8125	-1932.64
0.2184,0.7816	-1941.07
0.2174,0.7826	-1937.20
0.2269,0.7731	-1947.56
0.1961,0.8039	-1962.21
0.2247,0.7753	-1953.71
0.2065,0.7935	-1948.96
0.2184,0.7816	-1951.27
0.2300,0.7700	-1947.65
0.2230,0.7770	-1952.48
0.1992,0.8008	-1929.83
0.2791,0.7209	-1965.90
0.2186,0.7814	-1925.80
0.1874,0.8126	-1950.25
0.2101,0.7899	-1959.44
0.2332,0.7668	-1959.67
0.2066,0.7934	-1958.38
0.2729,0.7271	-1964.64
0.2329,0.7671	-1942.98
0.1850,0.8150	-1935.67
0.1984,0.8016	-1943.78
0.2702,0.7298	-1966.51
0.2387,0.7613	-1957.29
0.2639,0.7361	-1960.20
0.2298,0.7702	-1965.79
0.2004,0.7996	-1943.71
0.2251,0.7749	-1950.00
0.2728,0.7272	-1970.52
0.2364,0.7636	-1943.21
0.2647,0.7353	-1955.14
0.2386,0.7614	-1952.65
0.2039,0.7961	-1943.62
0.2129,0.7871	-1955.32
0.2307,0.7693	-1945.26
0.2367,0.7633	-1964.30
0.2751,0.7249	-1976.37
0.2180,0.7820	-1948.73
0.2090,0.7910	-1940.89
0.2399,0.7601	-1948.07
0.2562,0.7438	-1951.36
0.2238,0.7762	-1948.74
0.3043,0.6957	-1967.73
0.2250,0.7750	-1954.94
0.2203,0.7797	-1948.72
0.2159,0.7841	-1964.22
0.2384,0.7616	-1957.29
0.2087,0.7913	-1958.21
0.3214,0.6786	-1977.72
0.2116,0.7884	-1939.60
0.2194,0.7806	-1953.80
0.2087,0.7913	-1939.56
0.2605,0.7395	-1962.13
0.2127,0.7873	-1964.49
0.3237,0.6763	-1976.41
0.2147,0.7853	-1940.97
0.1813,0.8187	-1943.39
0.2177,0.7823	-1948.73
0.2497,0.7503	-1955.30
0.2144,0.7856	-1947.46
0.2871,0.7129	-1969.10
0.2061,0.7939	-1970.55
0.1716,0.8284	-1949.18
0.1970,0.8030	-1953.66
0.2476,0.7524	-1963.00
0.1853,0.8147	-1926.77
0.2844,0.7156	-1968.97
0.2300,0.7700	-1954.90
0.1879,0.8121	-1939.95
0.1962,0.8038	-1943.86
0.2674,0.7326	-1969.46
0.1923,0.8077	-1939.75
0.2318,0.7682	-1942.92
0.2011,0.7989	-1945.07
0.2103,0.7897	-1939.58
0.1794,0.8206	-1932.93
0.2983,0.7017	-1966.34
0.1565,0.8435	-1928.41
0.2511,0.7489	-1966.29
0.2711,0.7289	-1973.46
0.2301,0.7699	-1954.90
0.1821,0.8179	-1938.81
0.3172,0.6828	-1973.63
0.1673,0.8327	-1946.65
0.2368,0.7632	-1950.26
0.2643,0.7357	-1963.29
0.2203,0.7797	-1943.67
0.2387,0.7613	-1943.37
0.2781,0.7219	-1968.72
0.1460,0.8540	-1945.81
0.2039,0.7961	-1939.53
0.2632,0.7368	-1959.14
0.2404,0.7596	-1948.10
0.1918,0.8082	-1935.46
0.2584,0.7416	-1953.63
0.1509,0.8491	-1923.97
0.1952,0.8048	-1949.57
0.2530,0.7470	-1954.37
0.2655,0.7345	-1950.10
0.2293,0.7707	-1939.14
0.2681,0.7319	-1958.42
0.1630,0.8370	-1937.56
0.1907,0.8093	-1932.59
0.2678,0.7322	-1965.44
0.2656,0.7344	-1953.17
0.2366,0.7634	-1954.94
0.2308,0.7692	-1954.90
0.1699,0.8301	-1944.68
0.1851,0.8149	-1938.63
0.2693,0.7307	-1972.47
0.2629,0.7371	-1956.03
0.2288,0.7712	-1954.90
0.2188,0.7812	-1947.45
0.1654,0.8346	-1948.58
0.2324,0.7676	-1944.15
0.2622,0.7378	-1962.19
0.2631,0.7369	-1951.92
0.2140,0.7860	-1952.67
0.2364,0.7636	-1945.55
0.1697,0.8303	-1925.66
0.2435,0.7565	-1965.28
0.2439,0.7561	-1960.75
0.2737,0.7263	-1967.60
0.2059,0.7941	-1942.23
0.2691,0.7309	-1964.48
0.1665,0.8335	-1940.34
0.2208,0.7792	-1942.42
0.2585,0.7415	-1945.21
0.3120,0.6880	-1979.55
0.2090,0.7910	-1952.87
0.3227,0.6773	-1977.81
0.1610,0.8390	-1942.78
0.2217,0.7783	-1948.73
0.2354,0.7646	-1951.39
0.3368,0.6632	-1975.51
0.2318,0.7682	-1950.11
0.2891,0.7109	-1966.50
0.1828,0.8172	-1938.77
0.2093,0.7907	-1948.87
0.2200,0.7800	-1952.52
0.3183,0.6817	-1969.15
0.2159,0.7841	-1943.58
0.2909,0.7091	-1973.76
0.2081,0.7919	-1951.58
0.2191,0.7809	-1948.72
0.2637,0.7363	-1954.03
0.2995,0.7005	-1969.85
0.1887,0.8113	-1934.08
0.2639,0.7361	-1948.92
0.2065,0.7935	-1932.80
0.1813,0.8187	-1943.39
0.2343,0.7657	-1953.73
0.2863,0.7137	-1967.23
0.1933,0.8067	-1934.00
0.2353,0.7647	-1947.85
0.2170,0.7830	-1965.41
0.1920,0.8080	-1931.14
0.2582,0.7418	-1959.95
0.2774,0.7226	-1959.12
0.1926,0.8074	-1951.21
0.2293,0.7707	-1939.14
0.2152,0.7848	-1940.98
0.2003,0.7997	-1942.32
0.2285,0.7715	-1948.82
0.3034,0.6966	-1960.99
0.1839,0.8161	-1955.10
0.2520,0.7480	-1960.84
0.2449,0.7551	-1956.25
0.2006,0.7994	-1940.93
0.2047,0.7953	-1947.68
0.2882,0.7118	-1978.20
0.1957,0.8043	-1941.06
0.2376,0.7624	-1959.61
0.2698,0.7302	-1965.50
0.2009,0.7991	-1950.60
0.1945,0.8055	-1929.73
0.2946,0.7054	-1971.27
0.2068,0.7932	-1958.36
0.2093,0.7907	-1951.52
0.2586,0.7414	-1958.92
0.2197,0.7803	-1947.45
0.1950,0.8050	-1946.75
0.2377,0.7623	-1950.29
0.2004,0.7996	-1958.93
0.1962,0.8038	-1957.96
0.2846,0.7154	-1958.84
0.2250,0.7750	-1941.34
0.1959,0.8041	-1963.65
0.2469,0.7531	-1955.19
0.2050,0.7950	-1928.69
0.1848,0.8152	-1943.10
0.2742,0.7258	-1954.97
0.2449,0.7551	-1964.13
0.1987,0.8013	-1947.95
0.2496,0.7504	-1958.60
0.2120,0.7880	-1942.24
0.2129,0.7871	-1937.02
0.2605,0.7395	-1962.13
0.2682,0.7318	-1953.40
0.2000,0.8000	-1943.72
0.2545,0.7455	-1958.75
0.2409,0.7591	-1957.31
0.2306,0.7694	-1942.85
0.2700,0.7300	-1966.51
0.2109,0.7891	-1934.31
0.1982,0.8018	-1959.15
0.2333,0.7667	-1950.14
0.2241,0.7759	-1954.96
0.2091,0.7909	-1942.22
0.3048,0.6952	-1974.37
0.1938,0.8062	-1929.72
0.2224,0.7776	-1963.75
0.2515,0.7485	-1956.47
0.1763,0.8237	-1943.90
0.1947,0.8053	-1945.35
0.2876,0.7124	-1962.78
0.2002,0.7998	-1950.64
0.2252,0.7748	-1945.05
0.2551,0.7449	-1954.49
0.1850,0.8150	-1947.53
0.2037,0.7963	-1939.53
0.2875,0.7125	-1965.49
0.2063,0.7937	-1953.01
0.2604,0.7396	-1961.09
0.2356,0.7644	-1944.33
0.1842,0.8158	-1940.17
0.2523,0.7477	-1964.11
0.2523,0.7477	-1959.76
0.1940,0.8060	-1942.54
0.2306,0.7694	-1945.26
0.2208,0.7792	-1947.46
0.1615,0.8385	-1950.94
0.2743,0.7257	-1957.89
0.2210,0.7790	-1943.69
0.2007,0.7993	-1951.99
0.2273,0.7727	-1953.69
0.2202,0.7798	-1952.52
0.1883,0.8117	-1941.39
0.2676,0.7324	-1967.44
0.2311,0.7689	-1952.49
0.1956,0.8044	-1933.99
0.2491,0.7509	-1975.14
0.2311,0.7689	-1957.30
0.2001,0.7999	-1949.26
0.2593,0.7407	-1954.75
0.2213,0.7787	-1943.69
0.2077,0.7923	-1942.22
0.2277,0.7723	-1956.13
0.2165,0.7835	-1947.45
0.2107,0.7893	-1969.97
0.2475,0.7525	-1952.99
0.2263,0.7737	-1950.01
0.2367,0.7633	-1952.60
0.1739,0.8261	-1942.61
0.2384,0.7616	-1941.03
0.2285,0.7715	-1950.04
0.2521,0.7479	-1957.58
0.2227,0.7773	-1946.23
0.2608,0.7392	-1955.89
0.1918,0.8082	-1926.83
0.2250,0.7750	-1942.58
0.2319,0.7681	-1960.89
0.2396,0.7604	-1945.75
0.2186,0.7814	-1953.82
0.2471,0.7529	-1956.31
0.2211,0.7789	-1939.91
0.2478,0.7522	-1959.67
0.2272,0.7728	-1953.69
0.2294,0.7706	-1946.42
0.1985,0.8015	-1960.52
0.2267,0.7733	-1959.83
0.2185,0.7815	-1956.37
0.2561,0.7439	-1957.74
0.2164,0.7836	-1948.74
0.2480,0.7520	-1958.56
0.2120,0.7880	-1948.80
0.2394,0.7606	-1946.89
0.2619,0.7381	-1955.96
0.2645,0.7355	-1974.55
0.2123,0.7877	-1939.62
0.2210,0.7790	-1956.28
0.2292,0.7708	-1948.84
0.2562,0.7438	-1960.95
0.2795,0.7205	-1965.93
0.2716,0.7284	-1959.65
0.2006,0.7994	-1935.40
0.2147,0.7853	-1947.46
0.2395,0.7605	-1966.54
0.2208,0.7792	-1946.20
0.2578,0.7422	-1949.36
0.2479,0.7521	-1953.01
0.2530,0.7470	-1957.62
0.1846,0.8154	-1938.66
0.2837,0.7163	-1968.01
0.2161,0.7839	-1948.74
0.2623,0.7377	-1961.16
0.2122,0.7878	-1935.68
0.2250,0.7750	-1948.76
0.2247,0.7753	-1941.32
0.2534,0.7466	-1961.95
0.1905,0.8095	-1938.38
0.2207,0.7793	-1936.11
0.2228,0.7772	-1941.24
0.2330,0.7670	-1951.33
0.1989,0.8011	-1947.93
0.2535,0.7465	-1951.16
0.1969,0.8031	-1932.59
0.2002,0.7998	-1932.63
0.1937,0.8063	-1956.82
0.2086,0.7914	-1943.56
0.2105,0.7895	-1948.84
0.2088,0.7912	-1936.89
0.1709,0.8291	-1938.23
0.2330,0.7670	-1946.57
0.1907,0.8093	-1939.82
0.2155,0.7845	-1942.29
0.2028,0.7972	-1949.12
0.1836,0.8164	-1923.80
0.1744,0.8256	-1931.67
0.2140,0.7860	-1957.87
0.1934,0.8066	-1939.71
0.2457,0.7543	-1961.88
0.2147,0.7853	-1948.75
0.2088,0.7912	-1956.88
0.2105,0.7895	-1934.30
0.2196,0.7804	-1946.19
0.2080,0.7920	-1958.27
0.2085,0.7915	-1948.89
0.2179,0.7821	-1955.12
0.1852,0.8148	-1931.22
0.2000,0.8000	-1946.49
0.2215,0.7785	-1944.95
0.2405,0.7595	-1948.10
0.2245,0.7755	-1947.51
0.2348,0.7652	-1950.19
0.1707,0.8293	-1954.06
0.1840,0.8160	-1931.25
0.2059,0.7941	-1940.88
0.2072,0.7928	-1950.28
0.2268,0.7732	-1957.37
0.1889,0.8111	-1945.73
0.1712,0.8288	-1935.05
0.2115,0.7885	-1946.18
0.2021,0.7979	-1950.52
0.1885,0.8115	-1938.46
0.2310,0.7690	-1947.68
0.1835,0.8165	-1944.70
0.2120,0.7880	-1940.92
0.2456,0.7544	-1951.78
0.1762,0.8238	-1942.36
0.1971,0.8029	-1945.23
0.2487,0.7513	-1959.68
0.1764,0.8236	-1946.96
0.2066,0.7934	-1952.99
0.2342,0.7658	-1939.51
0.2161,0.7839	-1943.58
0.1974,0.8026	-1946.62
0.2355,0.7645	-1966.70
0.1802,0.8198	-1929.86
0.2142,0.7858	-1943.56
0.2452,0.7548	-1954.01
0.1939,0.8061	-1948.25
0.2023,0.7977	-1938.17
0.2228,0.7772	-1958.73
0.1852,0.8148	-1928.26
0.1881,0.8119	-1941.41
0.2758,0.7242	-1966.71
0.1838,0.8162	-1938.71
0.2076,0.7924	-1943.56
0.2775,0.7225	-1967.74
0.1996,0.8004	-1952.07
0.2104,0.7896	-1927.68
0.2760,0.7240	-1959.00
0.1919,0.8081	-1938.33
0.2186,0.7814	-1947.45
0.2661,0.7339	-1956.25
0.2148,0.7852	-1953.94
0.2188,0.7812	-1951.27
0.2430,0.7570	-1957.34
0.2003,0.7997	-1947.86
0.2276,0.7724	-1950.03
0.2664,0.7336	-1955.27
0.2224,0.7776	-1946.23
0.2212,0.7788	-1944.95
0.2125,0.7875	-1934.38
0.2206,0.7794	-1947.46
0.2039,0.7961	-1938.17
0.2633,0.7367	-1958.11
0.2186,0.7814	-1950.00
0.2586,0.7414	-1954.70
0.2358,0.7642	-1940.82
0.1742,0.8258	-1942.58
0.2188,0.7812	-1965.27
0.2543,0.7457	-1963.05
0.2305,0.7695	-1950.08
0.2515,0.7485	-1960.83
0.2519,0.7481	-1948.87
0.1631,0.8369	-1927.73
0.2339,0.7661	-1945.42
0.2807,0.7193	-1974.46
0.2246,0.7754	-1945.04
0.2408,0.7592	-1948.12
0.2377,0.7623	-1954.95
0.1817,0.8183	-1949.38
0.2469,0.7531	-1967.46
0.2962,0.7038	-1977.41
0.2213,0.7787	-1956.28
0.2283,0.7717	-1956.12
0.2557,0.7443	-1967.34
0.1866,0.8134	-1951.81
0.2111,0.7889	-1942.23
0.2425,0.7575	-1965.31
0.2139,0.7861	-1934.45
0.2642,0.7358	-1964.32
0.2022,0.7978	-1949.15
0.1754,0.8246	-1934.71
0.2080,0.7920	-1947.57
0.2572,0.7428	-1957.79
0.1858,0.8142	-1932.68
0.2257,0.7743	-1959.86
0.2215,0.7785	-1947.47
0.1946,0.8054	-1926.89
0.1745,0.8255	-1937.88
0.2795,0.7205	-1961.19
0.1973,0.8027	-1962.06
0.2541,0.7459	-1942.58
0.2099,0.7901	-1948.85
0.2011,0.7989	-1945.07
0.1784,0.8216	-1945.20
0.2489,0.7511	-1959.69
0.2237,0.7763	-1946.26
0.2318,0.7682	-1964.48
0.2013,0.7987	-1943.68
0.1987,0.8013	-1931.21
0.1642,0.8358	-1939.02
0.2603,0.7397	-1957.95
0.2265,0.7735	-1958.61
0.2721,0.7279	-1963.62
0.1837,0.8163	-1943.19
0.2018,0.7982	-1962.92
0.1786,0.8214	-1932.97
0.2492,0.7508	-1950.87
0.1928,0.8072	-1938.30
0.2384,0.7616	-1957.29
0.2073,0.7927	-1952.95
0.2040,0.7960	-1957.23
0.1775,0.8225	-1937.63
0.2041,0.7959	-1939.53
0.1917,0.8083	-1934.02
0.2245,0.7755	-1951.23
0.1838,0.8162	-1938.71
0.1774,0.8226	-1946.84
0.1646,0.8354	-1925.98
0.1868,0.8132	-1945.89
0.2056,0.7944	-1940.88
0.2065,0.7935	-1936.84
0.1870,0.8130	-1937.06
0.1760,0.8240	-1930.03
0.2217,0.7783	-1947.47
0.1951,0.8049	-1952.42
0.2011,0.7989	-1946.44
0.2173,0.7827	-1939.76
0.1973,0.8027	-1948.02
0.1609,0.8391	-1926.28
0.2265,0.7735	-1951.24
0.1942,0.8058	-1952.49
0.2212,0.7788	-1958.79
0.2201,0.7799	-1946.19
0.2091,0.7909	-1943.55
0.2112,0.7888	-1954.09
0.2250,0.7750	-1940.10
0.2138,0.7862	-1947.47
0.2027,0.7973	-1950.49
0.1863,0.8137	-1947.42
0.2381,0.7619	-1953.80
0.1927,0.8073	-1954.07
0.2314,0.7686	-1952.50
0.2149,0.7851	-1950.05
0.2180,0.7820	-1950.00
0.2122,0.7878	-1955.36
0.2093,0.7907	-1954.18
0.1802,0.8198	-1948.04
0.2337,0.7663	-1947.78
0.2169,0.7831	-1950.02
0.2143,0.7857	-1943.56
0.2104,0.7896	-1938.26
0.1880,0.8120	-1942.88
0.2162,0.7838	-1944.87
0.2001,0.7999	-1943.72
0.2400,0.7600	-1960.76
0.2266,0.7734	-1942.64
0.2264,0.7736	-1954.92
0.1826,0.8174	-1934.29
0.2506,0.7494	-1953.15
0.1860,0.8140	-1943.01
0.2749,0.7251	-1964.73
0.2324,0.7676	-1954.90
0.2172,0.7828	-1952.58
0.2096,0.7904	-1955.50
0.2743,0.7257	-1958.87
0.2172,0.7828	-1938.47
0.2736,0.7264	-1966.62
0.2022,0.7978	-1951.89
0.1908,0.8092	-1957.16
0.2055,0.7945	-1934.12
0.2520,0.7480	-1952.14
0.1991,0.8009	-1942.36
0.2149,0.7851	-1948.75
0.2148,0.7852	-1953.94
0.2006,0.7994	-1939.55
0.1947,0.8053	-1956.71
0.2536,0.7464	-1956.56
0.1867,0.8133	-1934.13
0.2111,0.7889	-1947.50
0.2476,0.7524	-1955.22
0.2500,0.7500	-1958.61
0.2378,0.7622	-1951.46
0.2291,0.7709	-1956.12
0.1946,0.8054	-1945.36
0.2064,0.7936	-1938.19
0.2442,0.7558	-1958.49
0.2064,0.7936	-1938.19
0.2476,0.7524	-1949.66
0.2466,0.7534	-1959.65
0.2067,0.7933	-1955.68
0.2373,0.7627	-1952.61
0.2374,0.7626	-1959.62
0.2153,0.7847	-1935.82
0.2197,0.7803	-1952.53
0.2327,0.7673	-1950.13
0.2316,0.7684	-1956.10
0.1998,0.8002	-1950.66
0.2272,0.7728	-1948.79
0.1886,0.8114	-1929.70
0.1879,0.8121	-1944.34
0.2533,0.7467	-1966.28
0.2084,0.7916	-1944.89
0.1765,0.8235	-1930.01
0.2178,0.7822	-1951.28
0.1881,0.8119	-1926.78
0.1891,0.8109	-1941.35
0.2237,0.7763	-1953.72
0.2128,0.7872	-1951.40
0.1665,0.8335	-1930.67
0.2526,0.7474	-1951.09
0.1752,0.8248	-1936.27
0.2010,0.7990	-1925.75
0.2465,0.7535	-1947.36
0.2228,0.7772	-1951.23
0.1653,0.8347	-1916.21
0.2640,0.7360	-1964.31
0.1820,0.8180	-1946.34
0.1788,0.8212	-1934.48
0.2519,0.7481	-1964.11
0.2354,0.7646	-1946.68
0.2115,0.7885	-1940.92
0.2856,0.7144	-1969.02
0.1879,0.8121	-1937.02
0.1912,0.8088	-1951.34
0.2112,0.7888	-1939.60
0.2325,0.7675	-1954.90
0.2256,0.7744	-1961.10
0.2794,0.7206	-1964.97
0.1769,0.8231	-1937.68
0.1945,0.8055	-1942.52
0.2138,0.7862	-1947.47
0.2439,0.7561	-1957.36
0.1945,0.8055	-1936.84
0.2463,0.7537	-1957.41
0.1968,0.8032	-1936.81
0.1949,0.8051	-1938.25
0.2151,0.7849	-1944.87
0.2432,0.7568	-1965.29
0.2022,0.7978	-1943.66
0.2508,0.7492	-1955.35
0.2132,0.7868	-1939.64
0.1945,0.8055	-1938.26
0.2057,0.7943	-1938.18
0.1972,0.8028	-1960.67
0.1956,0.8044	-1939.65
0.2441,0.7559	-1946.06
0.2000,0.8000	-1943.72
0.2093,0.7907	-1950.20
0.2045,0.7955	-1936.81
0.2313,0.7687	-1948.89
0.1847,0.8153	-1938.65
0.2170,0.7830	-1956.43
0.2339,0.7661	-1952.54
0.1881,0.8119	-1929.71
0.2077,0.7923	-1950.26
0.2410,0.7590	-1951.57
0.2077,0.7923	-1952.94
0.1846,0.8154	-1929.75
0.1960,0.8040	-1945.28
0.1806,0.8194	-1938.92
0.2046,0.7954	-1951.75
0.2073,0.7927	-1942.22
0.2088,0.7912	-1946.22
0.1938,0.8062	-1945.40
0.2090,0.7910	-1944.88
0.2149,0.7851	-1950.05
0.2060,0.7940	-1948.98
0.2042,0.7958	-1939.53
0.2135,0.7865	-1953.99
0.1707,0.8293	-1955.64
0.2432,0.7568	-1953.94
0.2322,0.7678	-1952.51
0.1975,0.8025	-1935.40
0.1867,0.8133	-1944.44
0.2591,0.7409	-1964.19
0.1608,0.8392	-1941.15
0.2362,0.7638	-1954.93
0.2441,0.7559	-1946.06
0.1838,0.8162	-1931.25
0.1803,0.8197	-1941.97
0.2463,0.7537	-1964.12
0.1950,0.8050	-1931.16
0.2655,0.7345	-1958.25
0.2710,0.7290	-1961.59
0.1938,0.8062	-1949.68
0.1978,0.8022	-1943.80
0.2334,0.7666	-1962.04
0.2318,0.7682	-1942.92
0.2415,0.7585	-1943.58
0.2640,0.7360	-1954.05
0.1905,0.8095	-1935.49
0.1996,0.8004	-1963.18
0.2086,0.7914	-1940.89
0.2323,0.7677	-1948.92
0.2195,0.7805	-1947.45
0.2609,0.7391	-1966.31
0.2083,0.7917	-1931.54
0.1903,0.8097	-1939.84
0.2574,0.7426	-1976.88
0.2677,0.7323	-1959.40
0.2535,0.7465	-1965.20
0.2436,0.7564	-1955.08
0.2291,0.7709	-1951.26
0.2026,0.7974	-1935.42
0.2730,0.7270	-1973.46
0.2665,0.7335	-1972.49
0.2310,0.7690	-1957.30
0.2521,0.7479	-1957.58
0.2231,0.7769	-1935.01
0.2246,0.7754	-1964.86
0.2459,0.7541	-1966.36
0.2163,0.7837	-1951.31
0.2384,0.7616	-1948.00
0.2343,0.7657	-1948.99
0.2317,0.7683	-1958.49
0.2193,0.7807	-1957.61
0.2645,0.7355	-1957.17
0.2407,0.7593	-1958.46
0.2628,0.7372	-1954.99
0.2456,0.7544	-1952.90
0.2109,0.7891	-1926.40
0.2280,0.7720	-1959.79
0.2657,0.7343	-1968.43
0.2264,0.7736	-1946.32
0.2707,0.7293	-1953.65
0.2725,0.7275	-1963.64
0.2338,0.7662	-1948.97
0.2116,0.7884	-1942.23
0.2536,0.7464	-1955.48
0.2355,0.7645	-1939.62
0.2463,0.7537	-1947.34
0.2491,0.7509	-1956.38
0.2280,0.7720	-1963.45
0.2227,0.7773	-1944.98
0.2188,0.7812	-1946.18
0.2296,0.7704	-1947.64
0.2247,0.7753	-1963.62
0.2341,0.7659	-1945.43
0.2209,0.7791	-1947.46
0.2230,0.7770	-1952.48
0.2350,0.7650	-1946.66
0.2145,0.7855	-1938.38
0.2098,0.7902	-1947.53
0.2054,0.7946	-1951.71
0.2461,0.7539	-1954.04
0.2527,0.7473	-1946.76
0.1975,0.8025	-1946.61
0.2455,0.7545	-1949.53
0.2115,0.7885	-1955.39
0.2127,0.7873	-1947.48
0.2690,0.7310	-1959.48
0.2256,0.7744	-1953.70
0.2080,0.7920	-1931.53
0.2476,0.7524	-1946.32
0.1968,0.8032	-1949.46
0.2126,0.7874	-1946.17
0.2500,0.7500	-1952.02
0.2459,0.7541	-1958.52
0.1918,0.8082	-1939.77
0.2496,0.7504	-1944.29
0.1973,0.8027	-1945.22
0.2194,0.7806	-1955.07
0.2420,0.7580	-1953.90
0.2696,0.7304	-1964.50
0.2191,0.7809	-1942.37
0.2424,0.7576	-1951.63
0.2043,0.7957	-1961.28
0.2060,0.7940	-1948.98
0.2442,0.7558	-1956.23
0.2490,0.7510	-1956.38
0.2214,0.7786	-1947.47
0.2364,0.7636	-1972.52
0.2263,0.7737	-1947.55
0.2282,0.7718	-1973.19
0.2408,0.7592	-1956.16
0.2460,0.7540	-1958.52
0.2362,0.7638	-1958.45
0.2339,0.7661	-1963.21
0.2286,0.7714	-1953.69
0.1899,0.8101	-1938.40
0.2672,0.7328	-1968.45
0.2873,0.7127	-1964.57
0.2392,0.7608	-1944.56
0.2031,0.7969	-1940.90
0.2445,0.7555	-1950.60
0.2023,0.7977	-1940.91
0.2552,0.7448	-1952.35
0.2747,0.7253	-1963.75
0.2076,0.7924	-1948.92
0.2144,0.7856	-1944.86
0.2277,0.7723	-1946.36
0.1952,0.8048	-1943.91
0.2678,0.7322	-1948.34
0.2468,0.7532	-1973.04
0.2119,0.7881	-1944.86
0.2517,0.7483	-1956.48
0.2216,0.7784	-1941.19
0.1611,0.8389	-1941.11
0.2337,0.7663	-1963.22
0.2467,0.7533	-1960.77
0.2471,0.7529	-1960.77
0.2264,0.7736	-1943.87
0.2050,0.7950	-1935.47
0.1991,0.8009	-1949.32
0.2145,0.7855	-1947.46
0.2066,0.7934	-1939.54
0.2376,0.7624	-1951.45
0.2296,0.7704	-1954.90
0.1793,0.8207	-1943.59
0.1840,0.8160	-1938.69
0.2136,0.7864	-1944.86
0.2261,0.7739	-1952.47
0.2489,0.7511	-1957.48
0.2367,0.7633	-1957.28
0.1643,0.8357	-1939.02
0.1804,0.8196	-1926.83
0.2160,0.7840	-1942.30
0.2154,0.7846	-1956.50
0.2414,0.7586	-1947.01
0.2645,0.7355	-1966.37
0.1740,0.8260	-1934.81
0.1796,0.8204	-1934.44
0.2222,0.7778	-1943.72
0.2461,0.7539	-1967.48
0.2425,0.7575	-1969.86
0.2616,0.7384	-1956.98
0.2134,0.7866	-1952.69
0.1762,0.8238	-1945.44
0.1934,0.8066	-1944.00
0.2444,0.7556	-1960.75
0.2039,0.7961	-1949.06
0.2294,0.7706	-1952.48
0.2067,0.7933	-1961.06
0.2102,0.7898	-1938.25
0.1913,0.8087	-1951.33
0.2486,0.7514	-1957.47
0.2485,0.7515	-1957.47
0.2504,0.7496	-1960.81
0.1981,0.8019	-1946.58
0.2266,0.7734	-1962.29
0.2061,0.7939	-1961.11
0.2278,0.7722	-1953.69
0.2541,0.7459	-1975.96
0.2091,0.7909	-1951.54
0.2053,0.7947	-1944.95
0.2152,0.7848	-1937.11
0.1777,0.8223	-1943.74
0.2356,0.7644	-1959.63
0.2386,0.7614	-1961.93
0.2086,0.7914	-1956.89
0.2345,0.7655	-1960.83
0.2398,0.7602	-1954.99
0.1791,0.8209	-1925.33
0.2407,0.7593	-1945.82
0.1968,0.8032	-1938.21
0.2584,0.7416	-1956.80
0.2355,0.7645	-1958.46
0.2299,0.7701	-1953.69
0.2024,0.7976	-1946.39
0.2505,0.7495	-1948.76
0.2004,0.7996	-1946.47
0.2351,0.7649	-1964.36
0.2007,0.7993	-1936.79
0.2105,0.7895	-1944.87
0.1992,0.8008	-1938.18
0.2589,0.7411	-1954.72
0.2214,0.7786	-1960.04
0.2226,0.7774	-1951.23
0.2257,0.7743	-1950.00
0.2109,0.7891	-1950.15
0.2394,0.7606	-1950.36
0.2663,0.7337	-1974.52
0.2199,0.7801	-1943.66
0.2023,0.7977	-1960.12
0.2086,0.7914	-1952.89
0.1942,0.8058	-1945.38
0.2142,0.7858	-1951.36
0.2754,0.7246	-1967.66
0.2030,0.7970	-1955.95
0.1984,0.8016	-1959.13
0.2480,0.7520	-1953.01
0.1964,0.8036	-1943.85
0.2026,0.7974	-1958.72
0.2337,0.7663	-1954.91
0.2006,0.7994	-1950.62
0.2404,0.7596	-1966.51
0.2436,0.7564	-1949.42
0.2178,0.7822	-1935.94
0.2569,0.7431	-1956.72
0.1891,0.8109	-1947.17
0.1661,0.8339	-1935.56
0.2584,0.7416	-1957.85
0.2402,0.7598	-1953.85
0.1937,0.8063	-1929.72
0.2622,0.7378	-1961.16
0.1740,0.8260	-1933.26
0.1788,0.8212	-1936.01
0.2318,0.7682	-1940.52
0.2275,0.7725	-1959.80
0.2565,0.7435	-1953.51
0.2610,0.7390	-1964.23
0.1773,0.8227	-1948.39
0.2452,0.7548	-1957.38
0.2435,0.7565	-1939.21
0.2372,0.7628	-1944.43
0.2631,0.7369	-1969.43
0.2560,0.7440	-1956.67
0.1688,0.8312	-1938.46
0.2285,0.7715	-1946.39
0.2039,0.7961	-1966.78
0.2736,0.7264	-1960.77
0.2541,0.7459	-1950.12
0.2405,0.7595	-1955.00
0.1724,0.8276	-1938.08
0.2026,0.7974	-1936.80
0.2619,0.7381	-1968.40
0.2649,0.7351	-1955.15
0.2432,0.7568	-1947.13
0.2547,0.7453	-1956.61
0.1932,0.8068	-1946.87
0.2115,0.7885	-1956.71
0.2664,0.7336	-1955.26
0.2762,0.7238	-1954.20
0.2187,0.7813	-1942.36
0.2207,0.7793	-1932.32
0.1907,0.8093	-1947.05
0.2095,0.7905	-1951.52
0.2426,0.7574	-1958.47
0.3015,0.6985	-1970.83
0.2458,0.7542	-1957.40
0.2425,0.7575	-1956.19
0.1741,0.8259	-1941.04
0.2288,0.7712	-1945.18
0.2808,0.7192	-1972.58
0.2745,0.7255	-1966.66
0.2328,0.7672	-1950.13
0.2463,0.7537	-1959.64
0.2047,0.7953	-1938.17
0.2376,0.7624	-1954.95
0.2821,0.7179	-1965.13
0.2408,0.7592	-1958.46
0.2136,0.7864	-1942.25
0.2210,0.7790	-1943.69
0.2133,0.7867	-1937.03
0.2249,0.7751	-1964.85
0.3141,0.6859	-1968.70
0.2378,0.7622	-1947.96
0.2313,0.7687	-1948.89
0.1864,0.8136	-1934.14
0.2352,0.7648	-1947.84
0.2030,0.7970	-1947.74
0.2800,0.7200	-1950.84
0.2206,0.7794	-1943.67
0.1966,0.8034	-1933.99
0.2069,0.7931	-1940.88
0.2283,0.7717	-1959.78
0.2159,0.7841	-1946.16
0.2654,0.7346	-1954.17
0.2028,0.7972	-1942.27
0.2533,0.7467	-1978.17
0.1934,0.8066	-1935.43
0.2041,0.7959	-1939.53
0.2356,0.7644	-1959.63
0.2264,0.7736	-1951.24
0.1961,0.8039	-1956.56
0.2169,0.7831	-1941.03
0.2208,0.7792	-1962.60
0.1781,0.8219	-1945.23
0.2188,0.7812	-1953.81
0.2290,0.7710	-1965.83
0.1995,0.8005	-1959.01
0.2418,0.7582	-1961.89
0.2143,0.7857	-1944.86
0.1845,0.8155	-1941.64
0.2215,0.7785	-1953.75
0.2347,0.7653	-1954.91
0.1915,0.8085	-1934.03
0.2253,0.7747	-1948.76
0.2384,0.7616	-1953.80
0.2122,0.7878	-1942.24
0.2290,0.7710	-1958.54
0.2462,0.7538	-1958.53
0.2035,0.7965	-1947.72
0.2391,0.7609	-1950.35
0.2404,0.7596	-1957.30
0.2237,0.7763	-1940.03
0.2422,0.7578	-1956.19
0.2567,0.7433	-1964.15
0.2009,0.7991	-1943.69
0.2728,0.7272	-1963.66
0.2314,0.7686	-1959.70
0.2197,0.7803	-1951.26
0.2028,0.7972	-1953.23
0.2021,0.7979	-1934.05
0.1891,0.8109	-1932.61
0.2755,0.7245	-1957.99
0.2251,0.7749	-1951.23
0.2259,0.7741	-1942.62
0.2135,0.7865	-1946.17
0.1861,0.8139	-1938.58
0.2062,0.7938	-1946.27
0.2892,0.7108	-1962.01
0.2011,0.7989	-1946.44
0.2557,0.7443	-1962.00
0.2069,0.7931	-1947.60
0.2242,0.7758	-1961.16
0.2118,0.7882	-1951.43
0.2551,0.7449	-1953.42
0.2092,0.7908	-1944.88
0.2120,0.7880	-1940.92
0.2145,0.7855	-1933.18
0.2352,0.7648	-1950.20
0.2291,0.7709	-1940.34
0.2704,0.7296	-1951.63
0.2056,0.7944	-1947.64
0.2351,0.7649	-1959.64
0.2686,0.7314	-1962.46
0.2398,0.7602	-1956.14
0.2519,0.7481	-1966.28
0.2652,0.7348	-1963.32
0.1928,0.8072	-1954.06
0.2037,0.7963	-1949.08
0.2630,0.7370	-1957.07
0.2142,0.7858	-1957.86
0.2369,0.7631	-1956.11
0.2388,0.7612	-1948.01
0.2090,0.7910	-1932.91
0.1911,0.8089	-1958.56
0.2259,0.7741	-1946.31
0.2327,0.7673	-1948.94
0.2262,0.7738	-1948.78
0.2711,0.7289	-1964.56
0.1996,0.8004	-1950.68
0.2049,0.7951	-1934.11
0.2190,0.7810	-1937.28
0.2295,0.7705	-1960.96
0.2074,0.7926	-1947.59
0.2684,0.7316	-1962.45
0.2004,0.7996	-1936.79
0.2049,0.7951	-1938.17
0.2003,0.7997	-1946.48
0.2243,0.7757	-1952.47
0.2304,0.7696	-1958.52
0.2897,0.7103	-1967.44
0.1935,0.8065	-1946.85
0.2030,0.7970	-1953.21
0.2007,0.7993	-1945.08
0.2042,0.7958	-1944.97
0.1939,0.8061	-1955.37
0.2482,0.7518	-1953.02
0.1734,0.8266	-1930.17
0.2116,0.7884	-1951.44
0.2034,0.7966	-1935.44
0.2071,0.7929	-1942.23
0.2193,0.7807	-1943.64
0.2288,0.7712	-1951.26
0.1709,0.8291	-1936.65
0.1945,0.8055	-1939.68
0.1976,0.8024	-1934.00
0.1893,0.8107	-1960.25
0.2200,0.7800	-1944.92
0.2227,0.7773	-1936.23
0.1966,0.8034	-1932.58
0.1943,0.8057	-1948.22
0.1995,0.8005	-1949.29
0.2222,0.7778	-1958.75
0.2217,0.7783	-1952.50
0.2268,0.7732	-1956.15
0.1952,0.8048	-1946.74
0.2117,0.7883	-1952.75
0.2239,0.7761	-1942.53
0.2190,0.7810	-1955.08
0.2472,0.7528	-1954.09
0.2101,0.7899	-1936.93
0.2120,0.7880	-1955.36
0.2118,0.7882	-1961.95
0.2043,0.7957	-1942.25
0.2111,0.7889	-1940.91
0.2685,0.7315	-1960.45
0.2064,0.7936	-1926.07
0.1998,0.8002	-1946.50
0.2531,0.7469	-1953.29
0.2036,0.7964	-1950.44
0.2405,0.7595	-1951.56
0.2576,0.7424	-1952.52
0.2057,0.7943	-1947.64
0.2099,0.7901	-1944.88
0.2821,0.7179	-1962.33
0.2259,0.7741	-1950.00
0.2614,0.7386	-1963.20
0.2629,0.7371	-1951.91
0.1976,0.8024	-1941.00
0.2118,0.7882	-1950.12
0.2773,0.7227	-1955.28
0.2011,0.7989	-1950.59
0.2457,0.7543	-1954.03
0.2642,0.7358	-1956.12
0.2141,0.7859	-1944.86
0.2300,0.7700	-1953.69
0.2402,0.7598	-1943.49
0.2236,0.7764	-1948.74
0.2189,0.7811	-1944.91
0.2740,0.7260	-1957.87
0.2310,0.7690	-1939.27
0.2499,0.7501	-1955.31
0.2073,0.7927	-1935.52
0.1920,0.8080	-1944.08
0.2103,0.7897	-1950.16
0.2755,0.7245	-1965.73
0.2471,0.7529	-1952.97
0.2343,0.7657	-1944.26
0.2168,0.7832	-1951.30
0.2398,0.7602	-1957.30
0.2379,0.7621	-1946.81
0.2278,0.7722	-1950.03
0.2462,0.7538	-1951.81
0.2318,0.7682	-1956.10
0.2145,0.7855	-1940.97
0.2345,0.7655	-1950.18
0.2676,0.7324	-1955.37
0.2381,0.7619	-1946.82
0.2419,0.7581	-1957.32
0.2189,0.7811	-1956.36
0.2162,0.7838	-1950.03
0.2311,0.7689	-1944.08
0.2438,0.7562	-1940.37
0.2361,0.7639	-1957.28
0.2429,0.7571	-1958.48
0.2193,0.7807	-1943.64
0.2423,0.7577	-1964.17
0.2123,0.7877	-1944.86
0.2383,0.7617	-1954.96
0.2562,0.7438	-1954.55
0.2358,0.7642	-1964.33
0.2214,0.7786	-1960.04
0.2085,0.7915	-1935.55
0.2302,0.7698	-1944.03
0.2225,0.7775	-1948.73
0.2293,0.7707	-1939.14
0.2206,0.7794	-1966.40
0.2244,0.7756	-1957.43
0.1991,0.8009	-1920.08
0.1944,0.8056	-1958.16
0.2359,0.7641	-1952.58
0.2119,0.7881	-1952.74
0.2330,0.7670	-1957.29
0.2258,0.7742	-1952.47
0.1888,0.8112	-1941.36
0.2153,0.7847	-1948.75
0.1859,0.8141	-1935.64
0.2129,0.7871	-1946.17
0.2351,0.7649	-1954.92
0.2069,0.7931	-1946.26
0.1946,0.8054	-1943.94
0.2639,0.7361	-1958.15
0.1748,0.8252	-1944.06
0.2317,0.7683	-1964.49
0.2159,0.7841	-1964.22
0.2213,0.7787	-1958.79
0.2044,0.7956	-1953.12
0.2285,0.7715	-1945.17
0.1879,0.8121	-1939.95
0.2267,0.7733	-1952.47
0.2189,0.7811	-1961.45
0.2135,0.7865	-1946.17
0.2064,0.7936	-1944.92
0.2350,0.7650	-1950.20
0.1822,0.8178	-1937.31
0.2148,0.7852	-1953.94
0.2016,0.7984	-1947.80
0.2177,0.7823	-1950.01
0.2026,0.7974	-1945.02
0.2193,0.7807	-1937.29
0.2056,0.7944	-1947.64
0.2588,0.7412	-1953.66
0.1919,0.8081	-1944.08
0.2266,0.7734	-1954.92
0.1783,0.8217	-1931.46
0.2417,0.7583	-1947.03
0.2261,0.7739	-1945.08
0.2660,0.7340	-1957.27
0.1707,0.8293	-1950.90
0.2406,0.7594	-1952.71
0.1977,0.8023	-1948.00
0.2418,0.7582	-1951.61
0.2368,0.7632	-1940.90
0.2463,0.7537	-1967.47
0.2136,0.7864	-1944.86
0.2256,0.7744	-1936.44
0.2647,0.7353	-1956.16
0.2191,0.7809	-1956.35
0.2063,0.7937	-1955.71
0.2102,0.7898	-1947.52
0.1938,0.8062	-1948.25
0.2223,0.7777	-1952.49
0.2615,0.7385	-1954.90
0.2196,0.7804	-1947.45
0.2271,0.7729	-1950.02
0.2349,0.7651	-1951.37
0.2018,0.7982	-1946.42
0.2117,0.7883	-1958.01
0.2779,0.7221	-1953.43
0.2110,0.7890	-1939.59
0.2316,0.7684	-1932.11
0.2283,0.7717	-1956.12
0.2165,0.7835	-1939.73
0.2034,0.7966	-1953.19
0.2607,0.7393	-1963.18
0.2303,0.7697	-1953.69
0.2273,0.7727	-1948.80
0.2545,0.7455	-1955.53
0.2608,0.7392	-1944.43
0.2120,0.7880	-1943.55
0.2598,0.7402	-1954.78
0.2311,0.7689	-1954.90
0.2273,0.7727	-1947.57
0.2571,0.7429	-1946.12
0.2458,0.7542	-1943.94
0.2172,0.7828	-1941.04
0.2747,0.7253	-1956.96
0.2409,0.7591	-1957.31
0.2302,0.7698	-1945.24
0.2236,0.7764	-1959.95
0.2258,0.7742	-1943.84
0.2043,0.7957	-1949.05
0.2515,0.7485	-1953.20
0.2593,0.7407	-1963.14
0.2466,0.7534	-1952.95
0.2145,0.7855	-1937.08
0.2052,0.7948	-1947.66
0.1686,0.8314	-1948.06
0.2914,0.7086	-1970.22
0.2466,0.7534	-1947.37
0.2721,0.7279	-1962.64
0.2327,0.7673	-1951.32
0.2128,0.7872	-1940.94
0.1787,0.8213	-1932.96
0.2580,0.7420	-1963.11
0.2457,0.7543	-1957.39
0.2305,0.7695	-1948.87
0.2353,0.7647	-1949.03
0.2126,0.7874	-1942.24
0.2221,0.7779	-1960.01
0.2238,0.7762	-1943.77
0.2775,0.7225	-1964.87
0.2348,0.7652	-1945.47
0.2320,0.7680	-1966.87
0.2299,0.7701	-1957.32
0.1811,0.8189	-1949.45
0.2241,0.7759	-1943.78
0.2546,0.7454	-1969.50
0.2148,0.7852	-1948.75
0.2373,0.7627	-1961.95
0.2280,0.7720	-1940.28
0.1814,0.8186	-1949.41
0.2558,0.7442	-1956.67
0.2097,0.7903	-1958.14
0.1979,0.8021	-1956.39
0.2433,0.7567	-1955.08
0.2027,0.7973	-1943.64
0.1867,0.8133	-1942.96
0.2722,0.7278	-1955.76
0.1994,0.8006	-1960.42
0.2157,0.7843	-1946.16
0.2630,0.7370	-1958.10
0.2246,0.7754	-1948.75
0.2146,0.7854	-1947.46
0.2627,0.7373	-1973.56
0.1984,0.8016	-1942.38
0.2281,0.7719	-1946.38
0.2758,0.7242	-1970.57
0.2293,0.7707	-1970.66
0.1975,0.8025	-1957.83
0.2559,0.7441	-1959.87
0.1842,0.8158	-1926.78
0.2640,0.7360	-1963.28
0.2843,0.7157	-1961.58
0.2342,0.7658	-1946.62
0.2137,0.7863	-1940.95
0.2413,0.7587	-1955.02
0.2099,0.7901	-1943.55
0.2677,0.7323	-1956.38
0.2448,0.7552	-1963.01
0.2298,0.7702	-1942.81
0.2320,0.7680	-1952.51
0.1778,0.8222	-1942.20
0.2168,0.7832	-1950.02
0.2569,0.7431	-1952.47
0.2534,0.7466	-1951.15
0.2294,0.7706	-1953.69
0.2225,0.7775	-1959.99
0.1761,0.8239	-1931.57
0.1633,0.8367	-1924.44
0.2386,0.7614	-1953.81
0.2590,0.7410	-1956.83
0.2395,0.7605	-1942.28
0.2060,0.7940	-1943.58
0.1637,0.8363	-1921.15
0.1908,0.8092	-1949.93
0.2331,0.7669	-1962.05
0.3286,0.6714	-1980.37
0.2556,0.7444	-1952.38
0.2400,0.7600	-1952.69
0.2027,0.7973	-1946.38
0.2056,0.7944	-1940.88
0.2518,0.7482	-1958.66
0.2887,0.7113	-1977.30
0.2439,0.7561	-1963.01
0.2253,0.7747	-1952.47
0.2191,0.7809	-1937.29
0.1952,0.8048	-1941.08
0.2658,0.7342	-1958.27
0.2778,0.7222	-1972.53
0.2201,0.7799	-1948.72
0.2424,0.7576	-1951.63
0.2118,0.7882	-1951.43
0.2106,0.7894	-1936.94
0.2604,0.7396	-1961.09
0.2185,0.7815	-1951.27
0.2533,0.7467	-1948.98
0.2368,0.7632	-1951.43
0.2471,0.7529	-1954.08
0.2221,0.7779	-1963.77
0.2622,0.7378	-1970.47
0.2354,0.7646	-1945.50
0.2247,0.7753	-1949.99
0.2544,0.7456	-1950.15
0.2546,0.7454	-1943.72
0.2410,0.7590	-1941.25
0.2451,0.7549	-1948.38
0.2202,0.7798	-1949.99
0.2278,0.7722	-1946.36
0.2477,0.7523	-1956.33
0.2535,0.7465	-1961.96
0.2399,0.7601	-1954.99
0.2265,0.7735	-1950.01
0.2361,0.7639	-1938.49
0.2453,0.7547	-1957.39
0.2412,0.7588	-1951.58
0.2333,0.7667	-1943.01
0.2143,0.7857	-1950.06
0.2470,0.7530	-1957.43
0.1954,0.8046	-1945.32
0.2331,0.7669	-1947.76
0.2541,0.7459	-1964.12
0.2377,0.7623	-1965.44
0.2136,0.7864	-1948.77
0.2095,0.7905	-1938.24
0.1703,0.8297	-1943.05
0.2607,0.7393	-1966.31
0.2553,0.7447	-1944.87
0.2283,0.7717	-1937.85
0.2107,0.7893	-1950.15
0.2088,0.7912	-1943.55
0.2022,0.7978	-1932.68
0.2533,0.7467	-1955.46
0.2269,0.7731	-1957.37
0.1995,0.8005	-1932.62
0.1933,0.8067	-1949.72
0.2127,0.7873	-1952.72
0.2460,0.7540	-1947.32
0.2677,0.7323	-1954.36
0.2535,0.7465	-1959.80
0.2032,0.7968	-1943.63
0.1759,0.8241	-1939.30
0.1925,0.8075	-1936.88
0.2049,0.7951	-1935.46
0.2616,0.7384	-1965.28
0.2250,0.7750	-1958.65
0.2329,0.7671	-1959.67
0.1809,0.8191	-1925.31
0.2006,0.7994	-1953.38
0.2064,0.7936	-1951.66
0.2491,0.7509	-1955.28
0.2210,0.7790	-1971.40
0.2143,0.7857	-1940.97
0.1769,0.8231	-1942.29
0.2324,0.7676	-1952.51
0.2165,0.7835	-1951.31
0.2724,0.7276	-1966.58
0.2257,0.7743	-1956.17
0.2182,0.7818	-1935.96
0.1990,0.8010	-1947.93
0.2470,0.7530	-1945.16
0.2463,0.7537	-1941.75
0.2312,0.7688	-1947.69
0.2051,0.7949	-1947.66
0.2078,0.7922	-1944.90
0.2305,0.7695	-1948.87
0.2371,0.7629	-1947.93
0.2366,0.7634	-1957.28
0.2461,0.7539	-1956.28
0.2116,0.7884	-1940.92
0.1879,0.8121	-1939.95
0.2343,0.7657	-1951.36
0.2575,0.7425	-1949.33
0.2202,0.7798	-1942.40
0.2632,0.7368	-1961.20
0.2260,0.7740	-1968.47
0.2150,0.7850	-1940.98
0.2169,0.7831	-1953.87
0.2522,0.7478	-1952.15
0.2371,0.7629	-1956.11
0.2861,0.7139	-1965.39
0.2154,0.7846	-1938.40
0.2232,0.7768	-1952.48
0.2203,0.7797	-1944.93
0.2409,0.7591	-1945.84
0.2431,0.7569	-1950.53
0.2359,0.7641	-1960.80
0.2248,0.7752	-1933.90
0.2145,0.7855	-1951.35
0.2577,0.7423	-1950.41
0.2401,0.7599	-1949.24
0.2102,0.7898	-1944.87
0.2667,0.7333	-1950.24
0.2067,0.7933	-1950.30
0.2384,0.7616	-1956.12
0.2810,0.7190	-1964.13
0.2269,0.7731	-1948.79
0.2142,0.7858	-1939.66
0.2425,0.7575	-1964.17
0.2093,0.7907	-1951.53
0.2344,0.7656	-1954.91
0.2791,0.7209	-1964.96
0.2209,0.7791	-1949.98
0.2059,0.7941	-1946.28
0.2286,0.7714	-1963.42
0.2295,0.7705	-1959.74
0.2269,0.7731	-1961.05
0.2550,0.7450	-1960.92
0.2142,0.7858	-1951.36
0.2051,0.7949	-1942.24
0.1872,0.8128	-1939.99
0.2051,0.7949	-1930.05
0.2278,0.7722	-1947.59
0.2145,0.7855	-1947.46
0.2305,0.7695	-1956.10
0.2132,0.7868	-1954.00
0.1958,0.8042	-1949.54
0.2058,0.7942	-1932.78
0.2244,0.7756	-1953.71
0.2108,0.7892	-1948.83
0.2446,0.7554	-1959.63
0.2019,0.7981	-1940.91
0.2125,0.7875	-1942.24
0.2290,0.7710	-1960.97
0.2268,0.7732	-1961.05
0.2143,0.7857	-1944.86
0.2272,0.7728	-1943.90
0.2013,0.7987	-1953.33
0.2158,0.7842	-1942.29
0.2211,0.7789	-1943.69
0.2198,0.7802	-1944.92
0.2419,0.7581	-1951.61
0.2187,0.7813	-1942.36
0.2060,0.7940	-1957.07
0.2165,0.7835	-1939.73
0.2384,0.7616	-1948.00
0.2402,0.7598	-1964.21
0.2412,0.7588	-1952.73
0.2030,0.7970	-1939.53
0.2079,0.7921	-1944.90
0.2038,0.7962	-1959.97
0.2425,0.7575	-1956.19
0.2135,0.7865	-1930.52
0.2676,0.7324	-1956.37
0.2191,0.7809	-1943.64
0.1855,0.8145	-1944.52
0.2228,0.7772	-1958.73
0.2260,0.7740	-1957.39
0.2062,0.7938	-1944.93
0.2668,0.7332	-1966.42
0.2203,0.7797	-1958.84
0.2100,0.7900	-1956.80
0.2190,0.7810	-1937.28
0.2040,0.7960	-1943.61
0.2268,0.7732	-1948.79
0.2586,0.7414	-1955.76
0.2322,0.7678	-1945.33
0.2366,0.7634	-1953.77
0.1920,0.8080	-1939.77
0.2214,0.7786	-1963.81
0.2360,0.7640	-1974.90
0.2896,0.7104	-1969.23
0.1905,0.8095	-1944.17
0.2735,0.7265	-1960.76
0.1880,0.8120	-1944.34
0.2221,0.7779	-1951.24
0.2787,0.7213	-1964.93
0.2949,0.7051	-1975.64
0.2018,0.7982	-1943.67
0.2369,0.7631	-1965.47
0.1849,0.8151	-1947.55
0.2056,0.7944	-1940.88
0.2694,0.7306	-1957.51
0.3061,0.6939	-1956.43
0.2215,0.7785	-1951.24
0.2640,0.7360	-1955.08
0.2006,0.7994	-1945.08
0.1929,0.8071	-1969.79
0.2098,0.7902	-1942.22
0.3019,0.6981	-1969.18
0.2137,0.7863	-1953.98
0.2620,0.7380	-1953.90
0.2156,0.7844	-1939.70
0.2001,0.7999	-1963.11
0.2069,0.7931	-1943.57
0.2929,0.7071	-1964.13
0.1947,0.8053	-1945.35
0.2585,0.7415	-1970.50
0.2026,0.7974	-1946.38
0.1987,0.8013	-1954.92
0.2273,0.7727	-1947.57
0.3020,0.6980	-1965.84
0.2036,0.7964	-1939.53
0.2665,0.7335	-1962.36
0.2052,0.7948	-1951.72
0.2520,0.7480	-1956.49
0.2279,0.7721	-1948.81
0.2780,0.7220	-1959.17
0.2220,0.7780	-1951.24
0.2369,0.7631	-1946.75
0.1985,0.8015	-1952.15
0.2262,0.7738	-1943.86
0.2336,0.7664	-1938.27
0.2625,0.7375	-1969.43
0.2528,0.7472	-1948.94
0.2624,0.7376	-1972.53
0.1934,0.8066	-1945.43
0.1997,0.8003	-1949.28
0.2178,0.7822	-1944.89
0.2439,0.7561	-1959.62
0.2419,0.7581	-1964.18
0.2696,0.7304	-1958.52
0.2141,0.7859	-1935.76
0.2082,0.7918	-1943.56
0.2105,0.7895	-1952.80
0.2709,0.7291	-1968.51
0.1938,0.8062	-1951.10
0.2414,0.7586	-1951.59
0.2205,0.7795	-1947.46
0.2318,0.7682	-1941.72
0.2082,0.7918	-1942.22
0.2519,0.7481	-1956.49
0.2231,0.7769	-1959.97
0.2631,0.7369	-1970.46
0.2451,0.7549	-1957.38
0.2414,0.7586	-1956.17
0.1997,0.8003	-1938.18
0.2676,0.7324	-1955.37
0.2212,0.7788	-1947.47
0.2366,0.7634	-1949.08
0.2335,0.7665	-1956.09
0.2616,0.7384	-1952.83
0.1937,0.8063	-1943.98
0.3052,0.6948	-1974.39
0.2138,0.7862	-1959.18
0.1905,0.8095	-1947.07
0.2365,0.7635	-1946.73
0.2872,0.7128	-1960.92
0.2371,0.7629	-1945.60
0.3101,0.6899	-1967.48
0.2503,0.7497	-1968.49
0.2015,0.7985	-1939.54
0.2633,0.7367	-1958.12
0.2684,0.7316	-1957.43
0.2357,0.7643	-1957.28
0.2661,0.7339	-1971.47
0.2225,0.7775	-1953.74
0.2261,0.7739	-1938.93
0.2724,0.7276	-1956.76
0.2163,0.7837	-1944.88
0.2334,0.7666	-1957.28
0.2455,0.7545	-1943.92
0.2430,0.7570	-1952.79
0.2496,0.7504	-1954.20
0.2779,0.7221	-1970.62
0.2098,0.7902	-1951.50
0.2351,0.7649	-1963.18
0.2631,0.7369	-1962.22
0.2290,0.7710	-1952.48
0.2516,0.7484	-1963.02
0.2756,0.7244	-1950.27
0.2312,0.7688	-1950.09
0.1972,0.8028	-1936.80
0.2346,0.7654	-1951.37
0.2150,0.7850	-1943.57
0.2299,0.7701	-1952.48
0.2728,0.7272	-1952.87
0.2243,0.7757	-1942.55
0.2225,0.7775	-1953.74
0.2300,0.7700	-1948.86
0.2138,0.7862	-1946.16
0.2472,0.7528	-1951.86
0.2645,0.7355	-1967.39
0.2401,0.7599	-1950.39
0.2284,0.7716	-1939.08
0.2071,0.7929	-1935.51
0.1955,0.8045	-1945.31
0.2705,0.7295	-1966.52
0.2413,0.7587	-1965.33
0.2250,0.7750	-1956.18
0.2125,0.7875	-1946.17
0.1893,0.8107	-1947.15
0.2040,0.7960	-1957.23
0.2297,0.7703	-1952.48
0.2324,0.7676	-1953.71
0.2325,0.7675	-1954.90
0.2508,0.7492	-1959.73
0.2205,0.7795	-1941.15
0.2269,0.7731	-1943.89
0.2361,0.7639	-1963.15
0.1847,0.8153	-1932.72
0.2420,0.7580	-1956.18
0.2336,0.7664	-1953.72
0.1997,0.8003	-1956.23
0.2225,0.7775	-1938.72
0.2386,0.7614	-1968.89
0.2804,0.7196	-1967.86
0.2143,0.7857	-1947.46
0.2118,0.7882	-1944.86
0.1733,0.8267	-1944.24
0.2243,0.7757	-1938.82
0.2230,0.7770	-1943.74
0.2925,0.7075	-1972.93
0.2407,0.7593	-1957.31
0.2193,0.7807	-1947.45
0.1895,0.8105	-1931.15
0.2067,0.7933	-1942.23
0.2074,0.7926	-1958.31
0.2766,0.7234	-1960.98
0.2240,0.7760	-1946.26
0.2002,0.7998	-1964.48
0.1823,0.8177	-1946.30
0.2070,0.7930	-1947.60
0.2241,0.7759	-1940.05
0.2912,0.7088	-1969.32
0.2175,0.7825	-1946.17
0.2297,0.7703	-1950.06
0.1978,0.8022	-1925.60
0.2328,0.7672	-1958.48
0.2090,0.7910	-1942.22
0.3058,0.6942	-1967.04
0.1810,0.8190	-1932.85
0.2193,0.7807	-1949.99
0.2099,0.7901	-1936.92
0.2100,0.7900	-1947.52
0.2011,0.7989	-1945.06
0.2618,0.7382	-1958.03
0.2239,0.7761	-1942.53
0.1952,0.8048	-1949.58
0.2220,0.7780	-1963.78
0.2499,0.7501	-1946.52
0.1871,0.8129	-1941.47
0.2080,0.7920	-1951.58
0.2232,0.7768	-1962.46
0.2293,0.7707	-1951.26
0.2065,0.7935	-1934.15
0.2493,0.7507	-1953.08
0.2212,0.7788	-1943.69
0.2237,0.7763	-1942.52
0.1831,0.8169	-1952.21
0.2163,0.7837	-1953.89
0.2361,0.7639	-1944.36
0.2031,0.7969	-1953.20
0.2039,0.7961	-1936.81
0.2266,0.7734	-1951.24
0.1940,0.8060	-1946.81
0.2238,0.7762	-1942.53
0.2125,0.7875	-1951.41
