#isoforms=['ENSG00000211445.SE.0.A.up_ENSG00000211445.SE.0.A.SE1_ENSG00000211445.SE.0.A.dn','ENSG00000211445.SE.0.B.up_ENSG00000211445.SE.0.B.dn']	exon_lens=('ENSG00000211445.SE.0.A.up',136),('ENSG00000211445.SE.0.A.SE1',426),('ENSG00000211445.SE.0.A.dn',154),('ENSG00000211445.SE.0.B.up',179),('ENSG00000211445.SE.0.B.dn',154)	iters=5000	burn_in=500	lag=10	percent_accept=95.15	proposal_type=drift	counts=(0,0):69,(0,1):59,(1,0):3,(1,1):146	assigned_counts=0:3,1:205	chrom=chr5	strand=+	mRNA_starts=151020606,151020563	mRNA_ends=151025493,151025493
sampled_psi	log_score
0.0288,0.9712	-1226.78
0.0210,0.9790	-1229.53
0.0242,0.9758	-1214.95
0.0135,0.9865	-1208.57
0.0215,0.9785	-1233.37
0.0085,0.9915	-1212.83
0.0334,0.9666	-1220.99
0.0207,0.9793	-1229.52
0.0206,0.9794	-1214.08
0.0167,0.9833	-1221.44
0.0229,0.9771	-1240.89
0.0087,0.9913	-1217.55
0.0353,0.9647	-1231.48
0.0188,0.9812	-1213.67
0.0196,0.9804	-1225.59
0.0175,0.9825	-1217.47
0.0208,0.9792	-1217.96
0.0104,0.9896	-1203.59
0.0297,0.9703	-1216.48
0.0200,0.9800	-1213.94
0.0215,0.9785	-1214.28
0.0143,0.9857	-1217.18
0.0207,0.9793	-1221.81
0.0122,0.9878	-1217.15
0.0325,0.9675	-1224.13
0.0207,0.9793	-1214.10
0.0214,0.9786	-1214.25
0.0142,0.9858	-1204.46
0.0205,0.9795	-1221.78
0.0139,0.9861	-1212.90
0.0253,0.9747	-1218.90
0.0233,0.9767	-1222.18
0.0214,0.9786	-1206.61
0.0181,0.9819	-1213.55
0.0219,0.9781	-1210.56
0.0162,0.9838	-1213.20
0.0224,0.9776	-1214.49
0.0170,0.9830	-1205.24
0.0207,0.9793	-1217.94
0.0155,0.9845	-1217.25
0.0205,0.9795	-1221.79
0.0172,0.9828	-1221.47
0.0255,0.9745	-1218.93
0.0167,0.9833	-1225.52
0.0229,0.9771	-1218.37
0.0163,0.9837	-1213.23
0.0183,0.9817	-1217.57
0.0192,0.9808	-1213.77
0.0220,0.9780	-1221.99
0.0168,0.9832	-1209.24
0.0226,0.9774	-1259.74
0.0164,0.9836	-1205.05
0.0156,0.9844	-1213.12
0.0193,0.9807	-1229.50
0.0234,0.9766	-1229.66
0.0150,0.9850	-1213.04
0.0291,0.9709	-1237.36
0.0183,0.9817	-1209.61
0.0146,0.9854	-1217.19
0.0214,0.9786	-1214.25
0.0237,0.9763	-1225.97
0.0134,0.9866	-1208.55
0.0211,0.9789	-1214.19
0.0160,0.9840	-1209.07
0.0151,0.9849	-1221.40
0.0198,0.9802	-1209.98
0.0239,0.9761	-1214.88
0.0112,0.9888	-1212.71
0.0237,0.9763	-1211.11
0.0187,0.9813	-1229.50
0.0180,0.9820	-1217.53
0.0192,0.9808	-1217.70
0.0250,0.9750	-1226.15
0.0126,0.9874	-1225.86
0.0240,0.9760	-1211.19
0.0196,0.9804	-1225.59
0.0163,0.9837	-1213.22
0.0180,0.9820	-1225.52
0.0265,0.9735	-1226.38
0.0103,0.9897	-1212.71
0.0285,0.9715	-1226.73
0.0171,0.9829	-1217.41
0.0189,0.9811	-1209.76
0.0204,0.9796	-1221.77
0.0249,0.9751	-1226.13
0.0099,0.9901	-1208.12
0.0298,0.9702	-1230.46
0.0141,0.9859	-1208.67
0.0182,0.9818	-1221.54
0.0207,0.9793	-1217.95
0.0229,0.9771	-1222.13
0.0078,0.9922	-1208.08
0.0256,0.9744	-1222.60
0.0138,0.9862	-1212.89
0.0190,0.9810	-1209.78
0.0197,0.9803	-1217.78
0.0211,0.9789	-1218.02
0.0085,0.9915	-1208.07
0.0246,0.9754	-1222.41
0.0184,0.9816	-1217.58
0.0169,0.9831	-1209.27
0.0186,0.9814	-1213.64
0.0229,0.9771	-1218.37
0.0093,0.9907	-1208.08
0.0204,0.9796	-1217.90
0.0215,0.9785	-1210.47
0.0161,0.9839	-1217.31
0.0194,0.9806	-1221.66
0.0242,0.9758	-1211.26
0.0089,0.9911	-1212.78
0.0182,0.9818	-1213.56
0.0203,0.9797	-1213.99
0.0174,0.9826	-1213.42
0.0155,0.9845	-1208.95
0.0185,0.9815	-1217.59
0.0068,0.9932	-1213.15
0.0164,0.9836	-1221.43
0.0232,0.9768	-1210.95
0.0164,0.9836	-1221.43
0.0176,0.9824	-1213.45
0.0189,0.9811	-1209.75
0.0078,0.9922	-1208.08
0.0153,0.9847	-1221.40
0.0198,0.9802	-1213.89
0.0146,0.9854	-1212.98
0.0169,0.9831	-1213.33
0.0205,0.9795	-1237.24
0.0075,0.9925	-1212.98
0.0135,0.9865	-1221.44
0.0167,0.9833	-1213.30
0.0145,0.9855	-1217.19
0.0207,0.9793	-1225.66
0.0192,0.9808	-1217.69
0.0086,0.9914	-1203.32
0.0113,0.9887	-1208.24
0.0192,0.9808	-1209.83
0.0127,0.9873	-1204.09
0.0200,0.9800	-1213.94
0.0203,0.9797	-1214.00
0.0077,0.9923	-1208.09
0.0136,0.9864	-1217.15
0.0226,0.9774	-1214.55
0.0144,0.9856	-1212.96
0.0201,0.9799	-1217.84
0.0177,0.9823	-1217.49
0.0080,0.9920	-1203.26
0.0132,0.9868	-1212.83
0.0235,0.9765	-1222.22
0.0169,0.9831	-1209.26
0.0190,0.9810	-1217.66
0.0127,0.9873	-1212.79
0.0102,0.9898	-1203.56
0.0116,0.9884	-1212.73
0.0311,0.9689	-1227.23
0.0160,0.9840	-1221.42
0.0166,0.9834	-1217.36
0.0151,0.9849	-1221.40
0.0090,0.9910	-1208.07
0.0114,0.9886	-1203.80
0.0296,0.9704	-1223.44
0.0157,0.9843	-1233.82
0.0156,0.9844	-1213.11
0.0168,0.9832	-1221.45
0.0091,0.9909	-1212.77
0.0121,0.9879	-1208.35
0.0314,0.9686	-1216.99
0.0152,0.9848	-1217.24
0.0239,0.9761	-1211.17
0.0158,0.9842	-1213.15
0.0104,0.9896	-1212.71
0.0123,0.9877	-1217.15
0.0306,0.9694	-1220.21
0.0131,0.9869	-1217.14
0.0278,0.9722	-1226.60
0.0174,0.9826	-1209.37
0.0101,0.9899	-1212.71
0.0123,0.9877	-1208.38
0.0248,0.9752	-1229.79
0.0110,0.9890	-1212.71
0.0291,0.9709	-1233.86
0.0219,0.9781	-1218.17
0.0100,0.9900	-1208.13
0.0160,0.9840	-1217.30
0.0209,0.9791	-1217.98
0.0115,0.9885	-1221.63
0.0357,0.9643	-1221.66
0.0206,0.9794	-1217.94
0.0098,0.9902	-1208.11
0.0149,0.9851	-1204.64
0.0183,0.9817	-1221.55
0.0104,0.9896	-1212.71
0.0337,0.9663	-1224.44
0.0213,0.9787	-1210.40
0.0121,0.9879	-1217.15
0.0133,0.9867	-1225.75
0.0194,0.9806	-1221.65
0.0118,0.9882	-1208.30
0.0307,0.9693	-1220.24
0.0216,0.9784	-1218.11
0.0105,0.9895	-1208.16
0.0177,0.9823	-1213.48
0.0153,0.9847	-1213.08
0.0092,0.9908	-1203.39
0.0295,0.9705	-1219.92
0.0193,0.9807	-1225.57
0.0132,0.9868	-1212.83
0.0143,0.9857	-1212.94
0.0117,0.9883	-1221.60
0.0099,0.9901	-1208.12
0.0385,0.9615	-1225.74
0.0188,0.9812	-1209.74
0.0148,0.9852	-1208.81
0.0127,0.9873	-1208.44
0.0113,0.9887	-1203.77
0.0117,0.9883	-1208.30
0.0349,0.9651	-1228.07
0.0159,0.9841	-1217.29
0.0147,0.9853	-1204.58
0.0134,0.9866	-1208.55
0.0130,0.9870	-1212.81
0.0109,0.9891	-1203.69
0.0256,0.9744	-1226.24
0.0177,0.9823	-1209.45
0.0152,0.9848	-1217.23
0.0149,0.9851	-1208.83
0.0131,0.9869	-1208.51
0.0102,0.9898	-1208.14
0.0285,0.9715	-1219.66
0.0178,0.9822	-1209.47
0.0146,0.9854	-1221.41
0.0119,0.9881	-1208.32
0.0161,0.9839	-1221.42
0.0113,0.9887	-1203.78
0.0287,0.9713	-1237.33
0.0243,0.9757	-1229.74
0.0122,0.9878	-1217.15
0.0119,0.9881	-1208.32
0.0170,0.9830	-1213.35
0.0121,0.9879	-1203.95
0.0235,0.9765	-1214.77
0.0232,0.9768	-1210.95
0.0137,0.9863	-1217.16
0.0154,0.9846	-1213.08
0.0166,0.9834	-1217.36
0.0126,0.9874	-1225.86
0.0222,0.9778	-1222.01
0.0186,0.9814	-1217.61
0.0102,0.9898	-1203.56
0.0162,0.9838	-1225.53
0.0174,0.9826	-1217.45
0.0131,0.9869	-1217.14
0.0223,0.9777	-1233.37
0.0174,0.9826	-1209.39
0.0100,0.9900	-1221.92
0.0156,0.9844	-1213.12
0.0196,0.9804	-1237.32
0.0170,0.9830	-1233.64
0.0218,0.9782	-1218.15
0.0153,0.9847	-1225.57
0.0090,0.9910	-1208.07
0.0154,0.9846	-1221.41
0.0210,0.9790	-1210.33
0.0218,0.9782	-1218.15
0.0196,0.9804	-1217.76
0.0130,0.9870	-1212.81
0.0100,0.9900	-1208.13
0.0129,0.9871	-1208.47
0.0250,0.9750	-1226.14
0.0275,0.9725	-1240.81
0.0188,0.9812	-1217.64
0.0112,0.9888	-1208.23
0.0111,0.9889	-1212.71
0.0113,0.9887	-1212.72
0.0259,0.9741	-1219.02
0.0255,0.9745	-1229.86
0.0181,0.9819	-1209.54
0.0092,0.9908	-1203.41
0.0144,0.9856	-1208.72
0.0106,0.9894	-1208.18
0.0202,0.9798	-1221.75
0.0291,0.9709	-1230.34
0.0210,0.9790	-1214.15
0.0097,0.9903	-1208.10
0.0138,0.9862	-1217.16
0.0100,0.9900	-1203.53
0.0153,0.9847	-1208.92
0.0302,0.9698	-1223.57
0.0225,0.9775	-1222.05
0.0097,0.9903	-1217.35
0.0124,0.9876	-1217.14
0.0113,0.9887	-1226.12
0.0156,0.9844	-1204.84
0.0268,0.9732	-1219.23
0.0237,0.9763	-1222.25
0.0067,0.9933	-1203.17
0.0107,0.9893	-1203.66
0.0135,0.9865	-1204.27
0.0125,0.9875	-1212.77
0.0196,0.9804	-1217.76
0.0172,0.9828	-1217.43
0.0091,0.9909	-1208.08
0.0132,0.9868	-1204.21
0.0143,0.9857	-1204.47
0.0126,0.9874	-1208.41
0.0177,0.9823	-1213.47
0.0171,0.9829	-1221.47
0.0089,0.9911	-1203.36
0.0148,0.9852	-1225.60
0.0143,0.9857	-1208.71
0.0125,0.9875	-1217.14
0.0163,0.9837	-1205.04
0.0166,0.9834	-1217.35
0.0083,0.9917	-1203.29
0.0125,0.9875	-1212.78
0.0179,0.9821	-1225.52
0.0149,0.9851	-1221.40
0.0151,0.9849	-1213.05
0.0152,0.9848	-1208.89
0.0095,0.9905	-1208.09
0.0096,0.9904	-1203.46
0.0167,0.9833	-1217.37
0.0149,0.9851	-1213.03
0.0164,0.9836	-1209.14
0.0178,0.9822	-1213.50
0.0097,0.9903	-1208.11
0.0087,0.9913	-1212.81
0.0211,0.9789	-1206.49
0.0150,0.9850	-1217.22
0.0178,0.9822	-1209.49
0.0174,0.9826	-1229.55
0.0109,0.9891	-1217.22
0.0081,0.9919	-1208.07
0.0206,0.9794	-1229.52
0.0147,0.9853	-1225.61
0.0195,0.9805	-1217.75
0.0169,0.9831	-1213.32
0.0100,0.9900	-1217.32
0.0056,0.9944	-1203.19
0.0194,0.9806	-1221.65
0.0138,0.9862	-1217.16
0.0216,0.9784	-1210.50
0.0232,0.9768	-1218.43
0.0109,0.9891	-1203.70
0.0055,0.9945	-1203.20
0.0141,0.9859	-1212.92
0.0125,0.9875	-1208.41
0.0229,0.9771	-1214.61
0.0267,0.9733	-1222.82
0.0092,0.9908	-1212.76
0.0056,0.9944	-1208.38
0.0157,0.9843	-1221.41
0.0125,0.9875	-1204.03
0.0240,0.9760	-1207.47
0.0241,0.9759	-1222.32
0.0086,0.9914	-1222.30
0.0055,0.9945	-1203.20
0.0141,0.9859	-1212.92
0.0103,0.9897	-1208.15
0.0248,0.9752	-1233.46
0.0240,0.9760	-1214.89
0.0080,0.9920	-1208.07
0.0059,0.9941	-1208.30
0.0145,0.9855	-1204.54
0.0078,0.9922	-1208.08
0.0271,0.9729	-1222.89
0.0299,0.9701	-1223.52
0.0077,0.9923	-1203.23
0.0063,0.9937	-1203.17
0.0149,0.9851	-1213.02
0.0062,0.9938	-1213.33
0.0321,0.9679	-1227.44
0.0306,0.9694	-1227.14
0.0085,0.9915	-1208.07
0.0051,0.9949	-1208.51
0.0127,0.9873	-1212.79
0.0067,0.9933	-1203.17
0.0304,0.9696	-1230.54
0.0293,0.9707	-1219.88
0.0088,0.9912	-1208.07
0.0055,0.9945	-1208.40
0.0121,0.9879	-1225.96
0.0081,0.9919	-1203.27
0.0269,0.9731	-1219.26
0.0263,0.9737	-1233.57
0.0096,0.9904	-1203.46
0.0060,0.9940	-1208.29
0.0126,0.9874	-1217.14
0.0095,0.9905	-1217.39
0.0199,0.9801	-1217.81
0.0252,0.9748	-1222.52
0.0106,0.9894	-1208.17
0.0068,0.9932	-1203.18
0.0137,0.9863	-1217.15
0.0109,0.9891	-1212.71
0.0163,0.9837	-1209.13
0.0218,0.9782	-1229.56
0.0103,0.9897	-1208.14
0.0068,0.9932	-1208.16
0.0099,0.9901	-1212.72
0.0093,0.9907	-1217.42
0.0153,0.9847	-1225.57
0.0202,0.9798	-1210.09
0.0134,0.9866	-1221.45
0.0066,0.9934	-1203.17
0.0098,0.9902	-1203.49
0.0102,0.9898	-1226.45
0.0182,0.9818	-1205.59
0.0218,0.9782	-1218.16
0.0176,0.9824	-1213.46
0.0068,0.9932	-1213.14
0.0089,0.9911	-1212.78
0.0095,0.9905	-1208.09
0.0152,0.9848	-1208.89
0.0189,0.9811	-1229.50
0.0223,0.9777	-1225.81
0.0066,0.9934	-1203.17
0.0077,0.9923	-1203.23
0.0093,0.9907	-1203.42
0.0171,0.9829	-1213.37
0.0184,0.9816	-1217.59
0.0218,0.9782	-1225.76
0.0085,0.9915	-1208.07
0.0096,0.9904	-1208.10
0.0087,0.9913	-1208.07
0.0193,0.9807	-1209.85
0.0166,0.9834	-1205.12
0.0228,0.9772	-1222.10
0.0078,0.9922	-1203.24
0.0083,0.9917	-1203.29
0.0101,0.9899	-1203.55
0.0182,0.9818	-1213.57
0.0176,0.9824	-1217.47
0.0219,0.9781	-1218.18
0.0092,0.9908	-1203.40
0.0082,0.9918	-1208.07
0.0087,0.9913	-1212.81
0.0159,0.9841	-1213.16
0.0136,0.9864	-1208.59
0.0167,0.9833	-1213.30
0.0083,0.9917	-1212.85
0.0083,0.9917	-1203.29
0.0073,0.9927	-1208.11
0.0120,0.9880	-1217.16
0.0128,0.9872	-1217.14
0.0157,0.9843	-1217.27
0.0078,0.9922	-1208.08
0.0072,0.9928	-1203.19
0.0058,0.9942	-1208.34
0.0152,0.9848	-1213.06
0.0133,0.9867	-1208.52
0.0148,0.9852	-1217.21
0.0071,0.9929	-1213.08
0.0075,0.9925	-1208.10
0.0092,0.9908	-1203.40
0.0171,0.9829	-1213.36
0.0136,0.9864	-1208.59
0.0188,0.9812	-1213.68
0.0086,0.9914	-1203.33
0.0062,0.9938	-1208.26
0.0080,0.9920	-1212.90
0.0131,0.9869	-1221.46
0.0125,0.9875	-1212.77
0.0155,0.9845	-1208.95
0.0103,0.9897	-1212.71
0.0066,0.9934	-1213.20
0.0086,0.9914	-1222.32
0.0130,0.9870	-1217.14
0.0127,0.9873	-1212.79
0.0149,0.9851	-1208.83
0.0094,0.9906	-1208.09
0.0073,0.9927	-1208.11
0.0075,0.9925	-1208.10
0.0124,0.9876	-1221.52
0.0177,0.9823	-1221.50
0.0162,0.9838	-1209.11
0.0098,0.9902	-1203.49
0.0117,0.9883	-1212.73
0.0064,0.9936	-1208.21
0.0125,0.9875	-1217.14
0.0160,0.9840	-1213.18
0.0159,0.9841	-1204.92
0.0084,0.9916	-1217.62
0.0109,0.9891	-1217.22
0.0086,0.9914	-1203.32
0.0107,0.9893	-1212.71
0.0188,0.9812	-1213.68
0.0129,0.9871	-1208.47
0.0110,0.9890	-1208.21
0.0103,0.9897	-1217.27
0.0087,0.9913	-1208.07
0.0105,0.9895	-1217.26
0.0155,0.9845	-1213.11
0.0121,0.9879	-1221.55
0.0096,0.9904	-1212.73
0.0098,0.9902	-1203.49
0.0081,0.9919	-1203.26
0.0123,0.9877	-1208.38
0.0184,0.9816	-1229.51
0.0106,0.9894	-1208.17
0.0105,0.9895	-1212.71
0.0081,0.9919	-1217.68
0.0077,0.9923	-1208.09
0.0152,0.9848	-1208.89
0.0166,0.9834	-1205.10
0.0093,0.9907	-1212.76
0.0081,0.9919	-1208.07
0.0125,0.9875	-1208.41
0.0079,0.9921	-1203.25
0.0123,0.9877	-1208.37
0.0187,0.9813	-1221.58
0.0089,0.9911	-1212.78
0.0078,0.9922	-1208.08
0.0118,0.9882	-1212.74
0.0123,0.9877	-1203.99
0.0106,0.9894	-1208.17
0.0148,0.9852	-1208.81
0.0080,0.9920	-1208.07
0.0084,0.9916	-1203.30
0.0134,0.9866	-1212.85
0.0125,0.9875	-1212.77
0.0102,0.9898	-1208.13
0.0179,0.9821	-1205.49
0.0095,0.9905	-1217.39
0.0072,0.9928	-1203.19
0.0157,0.9843	-1209.00
0.0119,0.9881	-1212.74
0.0085,0.9915	-1208.07
0.0136,0.9864	-1221.44
0.0116,0.9884	-1212.73
0.0068,0.9932	-1208.16
0.0173,0.9827	-1225.52
0.0108,0.9892	-1208.19
0.0096,0.9904	-1217.37
0.0148,0.9852	-1208.81
0.0086,0.9914	-1203.32
0.0074,0.9926	-1203.20
0.0143,0.9857	-1208.72
0.0106,0.9894	-1217.24
0.0100,0.9900	-1203.53
0.0157,0.9843	-1209.00
0.0084,0.9916	-1212.84
0.0100,0.9900	-1217.32
0.0174,0.9826	-1217.45
0.0096,0.9904	-1208.10
0.0093,0.9907	-1212.75
0.0159,0.9841	-1221.41
0.0100,0.9900	-1208.12
0.0064,0.9936	-1203.17
0.0176,0.9824	-1209.43
0.0086,0.9914	-1208.07
0.0073,0.9927	-1203.20
0.0158,0.9842	-1221.41
0.0090,0.9910	-1208.07
0.0072,0.9928	-1208.12
0.0213,0.9787	-1214.23
0.0083,0.9917	-1203.28
0.0073,0.9927	-1203.20
0.0136,0.9864	-1204.29
0.0086,0.9914	-1203.32
0.0087,0.9913	-1212.81
0.0199,0.9801	-1213.92
0.0089,0.9911	-1208.07
0.0079,0.9921	-1203.25
0.0110,0.9890	-1203.71
0.0103,0.9897	-1208.14
0.0068,0.9932	-1208.16
0.0186,0.9814	-1221.58
0.0074,0.9926	-1203.21
0.0088,0.9912	-1212.80
0.0121,0.9879	-1225.97
0.0104,0.9896	-1212.71
0.0069,0.9931	-1213.11
0.0195,0.9805	-1217.75
0.0067,0.9933	-1208.17
0.0071,0.9929	-1203.19
0.0104,0.9896	-1212.71
0.0092,0.9908	-1203.40
0.0074,0.9926	-1203.20
0.0152,0.9848	-1208.90
0.0094,0.9906	-1203.42
0.0068,0.9932	-1208.16
0.0100,0.9900	-1203.53
0.0095,0.9905	-1208.09
0.0069,0.9931	-1208.15
0.0129,0.9871	-1217.14
0.0109,0.9891	-1203.69
0.0074,0.9926	-1203.20
0.0118,0.9882	-1208.31
0.0088,0.9912	-1208.07
0.0068,0.9932	-1208.16
0.0119,0.9881	-1208.33
0.0114,0.9886	-1208.26
0.0080,0.9920	-1222.55
0.0105,0.9895	-1212.71
0.0081,0.9919	-1203.26
0.0070,0.9930	-1213.09
0.0104,0.9896	-1208.16
0.0111,0.9889	-1217.20
0.0094,0.9906	-1208.09
0.0105,0.9895	-1203.63
0.0095,0.9905	-1212.74
0.0065,0.9935	-1208.20
0.0102,0.9898	-1212.71
0.0097,0.9903	-1208.10
0.0083,0.9917	-1203.28
0.0105,0.9895	-1212.71
0.0104,0.9896	-1208.16
0.0067,0.9933	-1208.17
0.0087,0.9913	-1208.07
0.0120,0.9880	-1203.92
0.0094,0.9906	-1208.09
0.0098,0.9902	-1203.49
0.0093,0.9907	-1217.43
0.0067,0.9933	-1213.18
0.0091,0.9909	-1226.86
0.0111,0.9889	-1212.71
0.0117,0.9883	-1212.73
0.0103,0.9897	-1208.14
0.0110,0.9890	-1217.21
0.0065,0.9935	-1208.20
0.0096,0.9904	-1217.37
0.0107,0.9893	-1208.18
0.0104,0.9896	-1208.16
0.0107,0.9893	-1212.71
0.0104,0.9896	-1208.16
0.0061,0.9939	-1208.26
0.0100,0.9900	-1212.72
0.0111,0.9889	-1203.73
0.0133,0.9867	-1217.15
0.0101,0.9899	-1212.71
0.0106,0.9894	-1212.71
0.0060,0.9940	-1208.28
0.0106,0.9894	-1203.64
0.0118,0.9882	-1203.88
0.0116,0.9884	-1212.73
0.0114,0.9886	-1212.72
0.0105,0.9895	-1203.62
0.0068,0.9932	-1208.16
0.0094,0.9906	-1208.09
0.0103,0.9897	-1203.58
0.0124,0.9876	-1208.38
0.0132,0.9868	-1208.51
0.0098,0.9902	-1203.50
0.0063,0.9937	-1203.17
0.0091,0.9909	-1212.77
0.0098,0.9902	-1212.73
0.0118,0.9882	-1217.16
0.0128,0.9872	-1208.45
0.0100,0.9900	-1212.72
0.0068,0.9932	-1203.18
0.0085,0.9915	-1208.07
0.0082,0.9918	-1212.86
0.0092,0.9908	-1208.08
0.0140,0.9860	-1208.65
0.0105,0.9895	-1217.26
0.0083,0.9917	-1212.86
0.0078,0.9922	-1203.24
0.0087,0.9913	-1212.81
0.0082,0.9918	-1217.65
0.0121,0.9879	-1208.35
0.0084,0.9916	-1217.62
0.0068,0.9932	-1213.15
0.0081,0.9919	-1212.88
0.0104,0.9896	-1217.27
0.0078,0.9922	-1208.08
0.0102,0.9898	-1208.14
0.0079,0.9921	-1208.08
0.0069,0.9931	-1203.18
0.0076,0.9924	-1203.22
0.0098,0.9902	-1221.95
0.0079,0.9921	-1212.92
0.0122,0.9878	-1212.76
0.0073,0.9927	-1203.20
0.0070,0.9930	-1208.14
0.0084,0.9916	-1217.61
0.0119,0.9881	-1212.74
0.0076,0.9924	-1203.22
0.0115,0.9885	-1208.27
0.0077,0.9923	-1203.23
0.0066,0.9934	-1203.17
0.0082,0.9918	-1212.87
0.0121,0.9879	-1203.94
0.0063,0.9937	-1208.23
0.0093,0.9907	-1208.09
0.0090,0.9910	-1208.07
0.0059,0.9941	-1213.42
0.0086,0.9914	-1208.07
0.0134,0.9866	-1208.55
0.0063,0.9937	-1213.31
0.0111,0.9889	-1212.71
0.0096,0.9904	-1208.10
0.0057,0.9943	-1208.34
0.0102,0.9898	-1203.57
0.0128,0.9872	-1212.80
0.0063,0.9937	-1203.17
0.0149,0.9851	-1208.84
0.0080,0.9920	-1212.90
0.0056,0.9944	-1203.19
0.0106,0.9894	-1208.17
0.0146,0.9854	-1217.19
0.0079,0.9921	-1203.25
0.0138,0.9862	-1204.35
0.0083,0.9917	-1208.07
0.0069,0.9931	-1218.07
0.0115,0.9885	-1212.72
0.0152,0.9848	-1208.89
0.0089,0.9911	-1212.78
0.0155,0.9845	-1213.11
0.0076,0.9924	-1203.22
0.0071,0.9929	-1203.19
0.0112,0.9888	-1208.24
0.0143,0.9857	-1212.95
0.0084,0.9916	-1203.30
0.0174,0.9826	-1205.35
0.0085,0.9915	-1208.07
0.0090,0.9910	-1203.37
0.0126,0.9874	-1212.78
0.0147,0.9853	-1208.80
0.0087,0.9913	-1208.07
0.0147,0.9853	-1217.20
0.0082,0.9918	-1203.27
0.0065,0.9935	-1203.17
0.0116,0.9884	-1230.49
0.0168,0.9832	-1209.24
0.0079,0.9921	-1217.73
0.0145,0.9855	-1217.19
0.0058,0.9942	-1203.18
0.0055,0.9945	-1203.20
0.0142,0.9858	-1217.17
0.0150,0.9850	-1213.04
0.0078,0.9922	-1217.77
0.0126,0.9874	-1212.78
0.0057,0.9943	-1203.19
0.0054,0.9946	-1208.42
0.0139,0.9861	-1212.90
0.0116,0.9884	-1212.73
0.0063,0.9937	-1208.23
0.0157,0.9843	-1225.55
0.0053,0.9947	-1208.45
0.0064,0.9936	-1203.17
0.0128,0.9872	-1208.45
0.0099,0.9901	-1212.72
0.0068,0.9932	-1203.18
0.0135,0.9865	-1212.86
0.0069,0.9931	-1203.18
0.0077,0.9923	-1203.23
0.0121,0.9879	-1203.94
0.0096,0.9904	-1208.10
0.0060,0.9940	-1208.28
0.0116,0.9884	-1203.83
0.0063,0.9937	-1203.17
0.0070,0.9930	-1213.09
0.0068,0.9932	-1203.18
0.0092,0.9908	-1208.08
0.0060,0.9940	-1203.17
0.0136,0.9864	-1217.15
0.0056,0.9944	-1208.36
0.0052,0.9948	-1219.01
0.0082,0.9918	-1217.66
0.0082,0.9918	-1208.07
0.0062,0.9938	-1203.17
0.0120,0.9880	-1208.34
0.0039,0.9961	-1209.01
0.0057,0.9943	-1213.49
0.0079,0.9921	-1203.24
0.0099,0.9901	-1203.51
0.0064,0.9936	-1203.17
0.0138,0.9862	-1221.43
0.0034,0.9966	-1220.71
0.0041,0.9959	-1203.41
0.0064,0.9936	-1203.17
0.0128,0.9872	-1212.80
0.0071,0.9929	-1208.13
0.0130,0.9870	-1208.48
0.0032,0.9968	-1203.76
0.0047,0.9953	-1203.29
0.0057,0.9943	-1203.19
0.0138,0.9862	-1208.62
0.0065,0.9935	-1213.22
0.0117,0.9883	-1217.16
0.0033,0.9967	-1209.40
0.0046,0.9954	-1203.30
0.0057,0.9943	-1213.49
0.0132,0.9868	-1212.83
0.0075,0.9925	-1208.10
0.0132,0.9868	-1208.51
0.0036,0.9964	-1203.59
0.0054,0.9946	-1208.41
0.0055,0.9945	-1203.20
0.0171,0.9829	-1221.47
0.0062,0.9938	-1208.25
0.0166,0.9834	-1217.35
0.0039,0.9961	-1209.02
0.0046,0.9954	-1203.31
0.0051,0.9949	-1203.24
0.0186,0.9814	-1217.61
0.0052,0.9948	-1213.76
0.0131,0.9869	-1208.50
0.0051,0.9949	-1203.24
0.0051,0.9949	-1208.51
0.0059,0.9941	-1203.18
0.0201,0.9799	-1221.73
0.0050,0.9950	-1203.25
0.0107,0.9893	-1208.18
0.0056,0.9944	-1213.53
0.0070,0.9930	-1208.14
0.0063,0.9937	-1203.17
0.0153,0.9847	-1217.24
0.0042,0.9958	-1203.40
0.0114,0.9886	-1217.18
0.0067,0.9933	-1203.17
0.0055,0.9945	-1203.20
0.0076,0.9924	-1217.82
0.0143,0.9857	-1217.18
0.0037,0.9963	-1203.53
0.0148,0.9852	-1217.20
0.0076,0.9924	-1212.96
0.0053,0.9947	-1203.22
0.0071,0.9929	-1208.13
0.0175,0.9825	-1221.49
0.0049,0.9951	-1203.27
0.0151,0.9849	-1213.04
0.0058,0.9942	-1213.46
0.0059,0.9941	-1203.18
0.0086,0.9914	-1208.07
0.0211,0.9789	-1210.35
0.0044,0.9956	-1203.36
0.0169,0.9831	-1217.40
0.0058,0.9942	-1208.33
0.0069,0.9931	-1203.18
0.0063,0.9937	-1203.17
0.0170,0.9830	-1213.35
0.0034,0.9966	-1209.33
0.0192,0.9808	-1225.56
0.0066,0.9934	-1203.17
0.0083,0.9917	-1208.07
0.0093,0.9907	-1217.43
0.0234,0.9766	-1218.48
0.0038,0.9962	-1203.49
0.0192,0.9808	-1213.77
0.0067,0.9933	-1203.17
0.0082,0.9918	-1212.87
0.0090,0.9910	-1208.07
0.0219,0.9781	-1221.97
0.0039,0.9961	-1214.57
0.0160,0.9840	-1209.05
0.0070,0.9930	-1213.10
0.0096,0.9904	-1212.74
0.0088,0.9912	-1212.80
0.0169,0.9831	-1217.39
0.0053,0.9947	-1203.22
0.0146,0.9854	-1208.76
0.0083,0.9917	-1217.63
0.0078,0.9922	-1203.24
0.0081,0.9919	-1222.50
0.0147,0.9853	-1204.57
0.0042,0.9958	-1208.87
0.0138,0.9862	-1208.61
0.0098,0.9902	-1212.72
0.0066,0.9934	-1208.19
0.0090,0.9910	-1203.38
0.0156,0.9844	-1213.11
0.0040,0.9960	-1208.99
0.0130,0.9870	-1212.81
0.0100,0.9900	-1208.12
0.0066,0.9934	-1203.17
0.0105,0.9895	-1203.61
0.0160,0.9840	-1204.93
0.0037,0.9963	-1209.16
0.0151,0.9849	-1204.69
0.0123,0.9877	-1208.38
0.0073,0.9927	-1203.20
0.0091,0.9909	-1203.38
0.0174,0.9826	-1221.48
0.0029,0.9971	-1215.64
0.0160,0.9840	-1233.78
0.0122,0.9878	-1221.55
0.0091,0.9909	-1203.38
0.0090,0.9910	-1212.78
0.0179,0.9821	-1209.51
0.0027,0.9973	-1203.99
0.0164,0.9836	-1217.34
0.0133,0.9867	-1208.52
0.0109,0.9891	-1212.71
0.0086,0.9914	-1208.07
0.0164,0.9836	-1205.06
0.0021,0.9979	-1204.47
0.0130,0.9870	-1208.48
0.0129,0.9871	-1221.48
0.0081,0.9919	-1212.88
0.0099,0.9901	-1212.72
0.0152,0.9848	-1213.06
0.0018,0.9982	-1204.78
0.0104,0.9896	-1212.71
0.0139,0.9861	-1208.63
0.0077,0.9923	-1208.09
0.0118,0.9882	-1212.74
0.0160,0.9840	-1209.06
0.0020,0.9980	-1204.61
0.0091,0.9909	-1203.39
0.0142,0.9858	-1208.70
0.0075,0.9925	-1212.99
0.0134,0.9866	-1212.85
0.0153,0.9847	-1217.24
0.0019,0.9981	-1204.69
0.0097,0.9903	-1212.73
0.0168,0.9832	-1205.16
0.0081,0.9919	-1212.88
0.0103,0.9897	-1221.84
0.0107,0.9893	-1212.71
0.0022,0.9978	-1204.43
0.0087,0.9913	-1212.80
0.0154,0.9846	-1217.25
0.0064,0.9936	-1203.17
0.0098,0.9902	-1212.72
0.0128,0.9872	-1208.45
0.0023,0.9977	-1204.31
0.0076,0.9924	-1208.09
0.0153,0.9847	-1208.90
0.0064,0.9936	-1203.17
0.0089,0.9911	-1212.79
0.0128,0.9872	-1217.14
0.0022,0.9978	-1216.68
0.0080,0.9920	-1208.08
0.0145,0.9855	-1212.97
0.0079,0.9921	-1212.91
0.0098,0.9902	-1212.72
0.0109,0.9891	-1203.70
0.0019,0.9981	-1210.99
0.0084,0.9916	-1203.30
0.0151,0.9849	-1217.22
0.0086,0.9914	-1208.07
0.0087,0.9913	-1212.81
0.0082,0.9918	-1208.07
0.0019,0.9981	-1204.64
0.0088,0.9912	-1203.35
0.0146,0.9854	-1225.62
0.0085,0.9915	-1208.07
0.0096,0.9904	-1203.46
0.0083,0.9917	-1208.07
0.0017,0.9983	-1204.91
0.0089,0.9911	-1203.35
0.0127,0.9873	-1217.14
0.0103,0.9897	-1208.14
0.0083,0.9917	-1208.07
0.0072,0.9928	-1208.12
0.0012,0.9988	-1205.83
0.0086,0.9914	-1208.07
0.0134,0.9866	-1208.55
0.0089,0.9911	-1208.07
0.0070,0.9930	-1208.14
0.0064,0.9936	-1208.21
0.0011,0.9989	-1205.86
0.0095,0.9905	-1208.09
0.0143,0.9857	-1208.71
0.0092,0.9908	-1208.08
0.0060,0.9940	-1208.29
0.0073,0.9927	-1213.02
0.0010,0.9990	-1206.23
0.0080,0.9920	-1203.26
0.0133,0.9867	-1208.53
0.0092,0.9908	-1222.13
0.0056,0.9944	-1203.19
0.0066,0.9934	-1203.17
0.0010,0.9990	-1206.09
0.0089,0.9911	-1212.79
0.0141,0.9859	-1204.42
0.0096,0.9904	-1208.10
0.0051,0.9949	-1213.77
0.0074,0.9926	-1208.10
0.0013,0.9987	-1212.31
0.0083,0.9917	-1212.86
0.0129,0.9871	-1221.48
0.0094,0.9906	-1212.75
0.0054,0.9946	-1208.44
0.0082,0.9918	-1208.07
0.0011,0.9989	-1206.05
0.0090,0.9910	-1208.08
0.0115,0.9885	-1217.18
0.0079,0.9921	-1208.08
0.0048,0.9952	-1203.28
0.0082,0.9918	-1212.86
0.0009,0.9991	-1206.33
0.0091,0.9909	-1212.77
0.0125,0.9875	-1221.51
0.0065,0.9935	-1213.23
0.0030,0.9970	-1209.65
0.0075,0.9925	-1208.10
0.0011,0.9989	-1205.86
0.0085,0.9915	-1208.07
0.0103,0.9897	-1217.28
0.0091,0.9909	-1212.77
0.0034,0.9966	-1203.66
0.0076,0.9924	-1222.69
0.0011,0.9989	-1205.95
0.0120,0.9880	-1208.34
0.0084,0.9916	-1217.62
0.0122,0.9878	-1203.96
0.0039,0.9961	-1203.47
0.0069,0.9931	-1208.14
0.0009,0.9991	-1206.60
0.0118,0.9882	-1203.88
0.0073,0.9927	-1203.20
0.0117,0.9883	-1203.85
0.0039,0.9961	-1203.47
0.0075,0.9925	-1217.87
0.0010,0.9990	-1213.08
0.0150,0.9850	-1208.85
0.0067,0.9933	-1203.17
0.0111,0.9889	-1217.20
0.0056,0.9944	-1208.38
0.0082,0.9918	-1212.86
0.0011,0.9989	-1205.98
0.0136,0.9864	-1208.58
0.0065,0.9935	-1203.17
0.0137,0.9863	-1229.99
0.0052,0.9948	-1213.72
0.0069,0.9931	-1208.15
0.0014,0.9986	-1205.39
0.0138,0.9862	-1212.88
0.0057,0.9943	-1208.34
0.0147,0.9853	-1213.00
0.0056,0.9944	-1203.19
0.0078,0.9922	-1212.93
0.0012,0.9988	-1212.35
0.0131,0.9869	-1208.50
0.0042,0.9958	-1203.40
0.0148,0.9852	-1217.20
0.0058,0.9942	-1203.18
0.0066,0.9934	-1203.17
0.0014,0.9986	-1205.33
0.0136,0.9864	-1208.59
0.0054,0.9946	-1208.42
0.0182,0.9818	-1229.52
0.0061,0.9939	-1208.26
0.0090,0.9910	-1212.78
0.0016,0.9984	-1205.01
0.0144,0.9856	-1217.18
0.0056,0.9944	-1213.55
0.0155,0.9845	-1213.11
0.0075,0.9925	-1208.10
0.0074,0.9926	-1208.11
0.0021,0.9979	-1204.48
0.0152,0.9848	-1208.89
0.0050,0.9950	-1203.25
0.0123,0.9877	-1208.37
0.0093,0.9907	-1222.10
0.0079,0.9921	-1212.91
0.0022,0.9978	-1204.42
0.0094,0.9906	-1208.09
0.0065,0.9935	-1223.29
0.0102,0.9898	-1212.71
0.0091,0.9909	-1203.38
0.0064,0.9936	-1213.27
0.0021,0.9979	-1210.66
0.0081,0.9919	-1208.07
0.0070,0.9930	-1213.10
0.0104,0.9896	-1212.71
0.0086,0.9914	-1203.31
0.0066,0.9934	-1203.17
0.0018,0.9982	-1204.86
0.0085,0.9915	-1217.58
0.0082,0.9918	-1208.07
0.0138,0.9862	-1221.43
0.0095,0.9905	-1203.45
0.0068,0.9932	-1213.16
0.0015,0.9985	-1205.20
0.0096,0.9904	-1208.10
0.0085,0.9915	-1217.58
0.0113,0.9887	-1208.24
0.0087,0.9913	-1203.33
0.0081,0.9919	-1203.27
0.0014,0.9986	-1205.38
0.0103,0.9897	-1208.15
0.0085,0.9915	-1203.31
0.0128,0.9872	-1221.48
0.0089,0.9911	-1203.36
0.0103,0.9897	-1212.71
0.0015,0.9985	-1205.18
0.0103,0.9897	-1208.14
0.0094,0.9906	-1222.07
0.0123,0.9877	-1204.00
0.0117,0.9883	-1212.73
0.0113,0.9887	-1217.19
0.0015,0.9985	-1211.64
0.0111,0.9889	-1208.22
0.0108,0.9892	-1208.19
0.0150,0.9850	-1213.04
0.0096,0.9904	-1208.10
0.0108,0.9892	-1203.68
0.0016,0.9984	-1205.09
0.0087,0.9913	-1203.34
0.0122,0.9878	-1208.36
0.0159,0.9841	-1225.54
0.0094,0.9906	-1212.75
0.0090,0.9910	-1208.07
0.0014,0.9986	-1205.39
0.0084,0.9916	-1208.07
0.0120,0.9880	-1203.91
0.0165,0.9835	-1217.35
0.0119,0.9881	-1217.16
0.0082,0.9918	-1212.87
0.0015,0.9985	-1205.15
0.0094,0.9906	-1203.43
0.0130,0.9870	-1204.15
0.0193,0.9807	-1217.71
0.0126,0.9874	-1217.14
0.0093,0.9907	-1208.08
0.0017,0.9983	-1204.92
0.0092,0.9908	-1208.08
0.0124,0.9876	-1204.00
0.0205,0.9795	-1210.18
0.0124,0.9876	-1221.52
0.0094,0.9906	-1212.75
0.0019,0.9981	-1204.68
0.0110,0.9890	-1212.71
0.0156,0.9844	-1221.41
0.0155,0.9845	-1208.96
0.0101,0.9899	-1217.31
0.0107,0.9893	-1208.18
0.0027,0.9973	-1204.02
0.0111,0.9889	-1208.22
0.0165,0.9835	-1221.44
0.0149,0.9851	-1213.02
0.0088,0.9912	-1208.07
0.0120,0.9880	-1208.34
0.0032,0.9968	-1203.72
0.0112,0.9888	-1208.23
0.0184,0.9816	-1213.60
0.0151,0.9849	-1208.87
0.0084,0.9916	-1203.30
0.0103,0.9897	-1212.71
0.0034,0.9966	-1209.36
0.0094,0.9906	-1203.43
0.0183,0.9817	-1225.53
0.0153,0.9847	-1217.24
0.0089,0.9911	-1208.07
0.0108,0.9892	-1217.23
0.0029,0.9971	-1203.90
0.0100,0.9900	-1212.72
0.0196,0.9804	-1209.94
0.0170,0.9830	-1209.29
0.0103,0.9897	-1212.71
0.0094,0.9906	-1212.75
0.0034,0.9966	-1209.36
0.0100,0.9900	-1212.72
0.0172,0.9828	-1217.42
0.0193,0.9807	-1221.65
0.0131,0.9869	-1208.50
0.0107,0.9893	-1212.71
0.0034,0.9966	-1203.64
0.0139,0.9861	-1212.90
0.0215,0.9785	-1218.09
0.0161,0.9839	-1209.08
0.0147,0.9853	-1204.59
0.0092,0.9908	-1208.08
0.0033,0.9967	-1203.68
0.0119,0.9881	-1217.16
0.0234,0.9766	-1222.21
0.0176,0.9824	-1225.52
0.0151,0.9849	-1213.05
0.0094,0.9906	-1208.09
0.0028,0.9972	-1203.96
0.0114,0.9886	-1226.10
0.0208,0.9792	-1221.81
0.0237,0.9763	-1225.97
0.0126,0.9874	-1212.78
0.0100,0.9900	-1208.13
0.0031,0.9969	-1209.55
0.0152,0.9848	-1213.07
0.0189,0.9811	-1221.61
0.0189,0.9811	-1221.60
0.0148,0.9852	-1213.01
0.0105,0.9895	-1217.25
0.0033,0.9967	-1209.44
0.0131,0.9869	-1208.50
0.0187,0.9813	-1229.50
0.0193,0.9807	-1217.72
0.0184,0.9816	-1213.60
0.0099,0.9901	-1212.72
0.0033,0.9967	-1209.41
0.0131,0.9869	-1212.82
0.0178,0.9822	-1217.51
0.0205,0.9795	-1210.18
0.0162,0.9838	-1209.11
0.0109,0.9891	-1203.69
0.0030,0.9970	-1209.64
0.0111,0.9889	-1217.20
0.0175,0.9825	-1217.47
0.0175,0.9825	-1209.41
0.0158,0.9842	-1209.01
0.0124,0.9876	-1212.77
0.0032,0.9968	-1203.74
0.0103,0.9897	-1212.71
0.0167,0.9833	-1217.37
0.0144,0.9856	-1204.50
0.0172,0.9828	-1217.42
0.0109,0.9891	-1203.69
0.0029,0.9971	-1209.75
0.0099,0.9901	-1212.72
0.0159,0.9841	-1209.04
0.0141,0.9859	-1204.42
0.0145,0.9855	-1212.97
0.0090,0.9910	-1203.37
0.0033,0.9967	-1209.41
0.0095,0.9905	-1217.39
0.0139,0.9861	-1212.90
0.0180,0.9820	-1225.53
0.0171,0.9829	-1213.36
0.0089,0.9911	-1212.79
0.0051,0.9949	-1203.24
0.0111,0.9889	-1208.22
0.0144,0.9856	-1217.18
0.0192,0.9808	-1225.57
0.0207,0.9793	-1206.39
0.0115,0.9885	-1217.18
0.0051,0.9949	-1203.24
0.0117,0.9883	-1212.73
0.0141,0.9859	-1208.68
0.0149,0.9851	-1221.40
0.0175,0.9825	-1209.41
0.0104,0.9896	-1208.15
0.0048,0.9952	-1208.62
0.0156,0.9844	-1213.13
0.0129,0.9871	-1212.81
0.0142,0.9858	-1212.93
0.0166,0.9834	-1217.36
0.0124,0.9876	-1212.77
0.0059,0.9941	-1208.30
0.0171,0.9829	-1205.26
0.0159,0.9841	-1217.29
0.0159,0.9841	-1209.04
0.0189,0.9811	-1205.82
0.0146,0.9854	-1212.99
0.0045,0.9955	-1203.33
0.0141,0.9859	-1204.44
0.0129,0.9871	-1204.12
0.0120,0.9880	-1203.93
0.0175,0.9825	-1209.41
0.0147,0.9853	-1208.79
0.0033,0.9967	-1203.69
0.0154,0.9846	-1213.08
0.0112,0.9888	-1208.23
0.0133,0.9867	-1204.22
0.0172,0.9828	-1209.34
0.0183,0.9817	-1213.58
0.0042,0.9958	-1203.39
0.0129,0.9871	-1204.13
0.0106,0.9894	-1217.24
0.0136,0.9864	-1208.58
0.0158,0.9842	-1213.15
0.0199,0.9801	-1221.71
0.0056,0.9944	-1203.19
0.0119,0.9881	-1208.31
0.0109,0.9891	-1212.71
0.0134,0.9866	-1208.55
0.0135,0.9865	-1204.28
0.0187,0.9813	-1217.63
0.0056,0.9944	-1203.19
0.0131,0.9869	-1225.78
0.0131,0.9869	-1212.82
0.0128,0.9872	-1212.79
0.0134,0.9866	-1208.55
0.0176,0.9824	-1213.46
0.0059,0.9941	-1203.18
0.0135,0.9865	-1208.57
0.0126,0.9874	-1212.78
0.0148,0.9852	-1213.00
0.0146,0.9854	-1208.77
0.0169,0.9831	-1221.45
0.0066,0.9934	-1208.18
0.0144,0.9856	-1217.18
0.0137,0.9863	-1217.15
0.0189,0.9811	-1213.70
0.0160,0.9840	-1217.30
0.0110,0.9890	-1217.21
0.0076,0.9924	-1217.85
0.0159,0.9841	-1209.03
0.0153,0.9847	-1217.24
0.0138,0.9862	-1208.63
0.0174,0.9826	-1217.45
0.0091,0.9909	-1212.77
0.0059,0.9941	-1208.31
0.0145,0.9855	-1204.52
0.0156,0.9844	-1213.11
0.0118,0.9882	-1208.30
0.0160,0.9840	-1209.05
0.0102,0.9898	-1217.29
0.0065,0.9935	-1218.26
0.0126,0.9874	-1208.43
0.0200,0.9800	-1217.83
0.0131,0.9869	-1212.82
0.0179,0.9821	-1221.52
0.0093,0.9907	-1212.75
0.0081,0.9919	-1212.88
0.0123,0.9877	-1217.15
0.0257,0.9743	-1240.79
0.0114,0.9886	-1217.18
0.0178,0.9822	-1217.51
0.0068,0.9932	-1208.16
0.0075,0.9925	-1212.98
0.0125,0.9875	-1208.40
0.0351,0.9649	-1231.42
0.0087,0.9913	-1212.80
0.0232,0.9768	-1214.69
0.0072,0.9928	-1222.92
0.0076,0.9924	-1208.09
0.0108,0.9892	-1212.71
0.0377,0.9623	-1231.98
0.0080,0.9920	-1208.07
0.0248,0.9752	-1222.45
0.0096,0.9904	-1203.46
0.0082,0.9918	-1212.87
0.0103,0.9897	-1203.57
0.0390,0.9610	-1238.68
0.0079,0.9921	-1203.25
0.0257,0.9743	-1222.61
0.0103,0.9897	-1208.15
0.0097,0.9903	-1203.47
0.0106,0.9894	-1208.17
0.0405,0.9595	-1238.96
0.0088,0.9912	-1212.80
0.0254,0.9746	-1226.21
0.0096,0.9904	-1212.73
0.0072,0.9928	-1203.19
0.0149,0.9851	-1208.83
0.0426,0.9574	-1239.37
0.0109,0.9891	-1208.20
0.0230,0.9770	-1218.40
0.0121,0.9879	-1217.15
0.0078,0.9922	-1212.92
0.0140,0.9860	-1217.17
0.0354,0.9646	-1231.48
0.0119,0.9881	-1212.74
0.0220,0.9780	-1221.99
0.0157,0.9843	-1217.27
0.0098,0.9902	-1208.11
0.0127,0.9873	-1204.07
0.0330,0.9670	-1220.88
0.0128,0.9872	-1204.11
0.0172,0.9828	-1213.38
0.0159,0.9841	-1217.29
0.0068,0.9932	-1208.16
0.0130,0.9870	-1212.81
0.0320,0.9680	-1234.23
0.0103,0.9897	-1208.14
0.0149,0.9851	-1213.02
0.0148,0.9852	-1208.82
0.0070,0.9930	-1208.13
0.0126,0.9874	-1212.78
0.0333,0.9667	-1224.34
0.0098,0.9902	-1212.73
0.0156,0.9844	-1221.41
0.0112,0.9888	-1208.23
0.0079,0.9921	-1217.74
0.0116,0.9884	-1212.73
0.0230,0.9770	-1218.38
0.0102,0.9898	-1208.13
0.0116,0.9884	-1203.84
0.0155,0.9845	-1208.95
0.0101,0.9899	-1208.13
0.0162,0.9838	-1209.10
0.0251,0.9749	-1226.17
0.0111,0.9889	-1212.71
0.0135,0.9865	-1204.28
0.0171,0.9829	-1209.32
0.0174,0.9826	-1221.48
0.0182,0.9818	-1225.53
0.0284,0.9716	-1209.05
0.0131,0.9869	-1204.19
0.0123,0.9877	-1221.53
0.0197,0.9803	-1217.79
0.0163,0.9837	-1221.43
0.0194,0.9806	-1213.80
0.0277,0.9723	-1212.33
0.0111,0.9889	-1208.22
0.0145,0.9855	-1212.97
0.0169,0.9831	-1209.26
0.0152,0.9848	-1213.07
0.0218,0.9782	-1233.37
0.0250,0.9750	-1226.16
0.0119,0.9881	-1217.16
0.0157,0.9843	-1208.99
0.0159,0.9841	-1204.91
0.0176,0.9824	-1209.43
0.0253,0.9747	-1207.93
0.0280,0.9720	-1212.46
0.0101,0.9899	-1226.48
0.0160,0.9840	-1217.30
0.0165,0.9835	-1213.27
0.0157,0.9843	-1213.13
0.0236,0.9764	-1222.24
0.0274,0.9726	-1226.52
0.0077,0.9923	-1208.09
0.0141,0.9859	-1208.68
0.0150,0.9850	-1221.40
0.0172,0.9828	-1209.33
0.0193,0.9807	-1229.50
0.0300,0.9700	-1213.10
0.0058,0.9942	-1213.46
0.0190,0.9810	-1209.79
0.0149,0.9851	-1217.21
0.0179,0.9821	-1213.50
0.0180,0.9820	-1229.52
0.0289,0.9711	-1230.31
0.0058,0.9942	-1203.18
0.0190,0.9810	-1213.73
0.0143,0.9857	-1212.94
0.0163,0.9837	-1221.43
0.0212,0.9788	-1218.04
0.0291,0.9709	-1226.84
0.0051,0.9949	-1208.52
0.0201,0.9799	-1221.73
0.0183,0.9817	-1213.58
0.0151,0.9849	-1221.40
0.0177,0.9823	-1221.50
0.0346,0.9654	-1224.66
0.0037,0.9963	-1214.72
0.0244,0.9756	-1218.68
0.0233,0.9767	-1225.92
0.0154,0.9846	-1217.24
0.0175,0.9825	-1221.49
0.0335,0.9665	-1224.38
0.0045,0.9955	-1203.33
0.0229,0.9771	-1218.36
0.0211,0.9789	-1218.01
0.0177,0.9823	-1217.49
0.0168,0.9832	-1205.17
0.0396,0.9604	-1245.17
0.0039,0.9961	-1203.48
0.0250,0.9750	-1222.48
0.0217,0.9783	-1210.50
0.0192,0.9808	-1229.50
0.0171,0.9829	-1213.36
0.0431,0.9569	-1223.97
0.0029,0.9971	-1209.70
0.0255,0.9745	-1218.94
0.0214,0.9786	-1214.25
0.0250,0.9750	-1215.17
0.0199,0.9801	-1229.50
0.0372,0.9628	-1228.62
0.0029,0.9971	-1209.70
0.0249,0.9751	-1215.14
0.0191,0.9809	-1205.87
0.0272,0.9728	-1219.33
0.0188,0.9812	-1217.64
0.0360,0.9640	-1228.34
0.0032,0.9968	-1220.97
0.0235,0.9765	-1222.23
0.0207,0.9793	-1210.24
0.0294,0.9706	-1230.39
0.0140,0.9860	-1225.68
0.0342,0.9658	-1224.57
0.0035,0.9965	-1209.23
0.0238,0.9762	-1229.70
0.0185,0.9815	-1225.54
0.0263,0.9737	-1215.52
0.0130,0.9870	-1212.81
0.0310,0.9690	-1227.21
0.0026,0.9974	-1204.09
0.0219,0.9781	-1218.16
0.0212,0.9788	-1233.37
0.0238,0.9762	-1218.56
0.0129,0.9871	-1208.46
0.0293,0.9707	-1216.37
0.0027,0.9973	-1215.79
0.0208,0.9792	-1210.25
0.0243,0.9757	-1214.96
0.0248,0.9752	-1215.11
0.0129,0.9871	-1204.12
0.0314,0.9686	-1234.15
0.0026,0.9974	-1210.00
0.0168,0.9832	-1221.45
0.0269,0.9731	-1219.28
0.0242,0.9758	-1226.04
0.0155,0.9845	-1221.41
0.0256,0.9744	-1226.24
0.0026,0.9974	-1210.04
0.0186,0.9814	-1217.62
0.0298,0.9702	-1226.97
0.0244,0.9756	-1222.38
0.0136,0.9864	-1208.58
0.0270,0.9730	-1215.70
0.0025,0.9975	-1204.18
0.0186,0.9814	-1229.51
0.0249,0.9751	-1218.79
0.0258,0.9742	-1215.36
0.0123,0.9877	-1212.76
0.0236,0.9764	-1222.23
0.0033,0.9967	-1203.70
0.0168,0.9832	-1213.31
0.0289,0.9711	-1216.25
0.0224,0.9776	-1210.71
0.0126,0.9874	-1212.78
0.0207,0.9793	-1229.52
0.0029,0.9971	-1203.88
0.0171,0.9829	-1217.41
0.0216,0.9784	-1229.55
0.0297,0.9703	-1226.94
0.0154,0.9846	-1208.93
0.0234,0.9766	-1222.21
0.0024,0.9976	-1204.25
0.0158,0.9842	-1204.87
0.0198,0.9802	-1217.80
0.0303,0.9697	-1234.00
0.0180,0.9820	-1217.53
0.0240,0.9760	-1211.18
0.0024,0.9976	-1204.22
0.0164,0.9836	-1221.43
0.0190,0.9810	-1213.73
0.0269,0.9731	-1233.62
0.0193,0.9807	-1229.50
0.0228,0.9772	-1210.84
0.0026,0.9974	-1204.08
0.0177,0.9823	-1205.45
0.0143,0.9857	-1221.41
0.0290,0.9710	-1219.79
0.0173,0.9827	-1205.33
0.0196,0.9804	-1221.68
0.0026,0.9974	-1204.11
0.0143,0.9857	-1221.41
0.0161,0.9839	-1213.19
0.0286,0.9714	-1223.21
0.0217,0.9783	-1214.33
0.0191,0.9809	-1221.62
0.0033,0.9967	-1203.69
0.0143,0.9857	-1212.94
0.0158,0.9842	-1213.15
0.0288,0.9712	-1223.26
0.0190,0.9810	-1221.62
0.0168,0.9832	-1217.38
0.0034,0.9966	-1203.64
0.0117,0.9883	-1203.85
0.0147,0.9853	-1225.61
0.0306,0.9694	-1213.30
0.0214,0.9786	-1214.26
0.0141,0.9859	-1221.42
0.0039,0.9961	-1203.47
0.0147,0.9853	-1208.78
0.0160,0.9840	-1209.06
0.0235,0.9765	-1214.77
0.0212,0.9788	-1210.37
0.0136,0.9864	-1225.72
0.0038,0.9962	-1214.62
0.0147,0.9853	-1213.00
0.0140,0.9860	-1217.17
0.0235,0.9765	-1218.48
0.0217,0.9783	-1214.32
0.0138,0.9862	-1221.43
0.0034,0.9966	-1209.34
0.0143,0.9857	-1204.48
0.0206,0.9794	-1214.07
0.0244,0.9756	-1218.68
0.0215,0.9785	-1221.92
0.0124,0.9876	-1221.53
0.0042,0.9958	-1208.89
0.0157,0.9843	-1221.41
0.0214,0.9786	-1221.90
0.0215,0.9785	-1225.73
0.0298,0.9702	-1226.97
0.0141,0.9859	-1229.91
0.0036,0.9964	-1209.17
0.0158,0.9842	-1209.02
0.0238,0.9762	-1222.28
0.0270,0.9730	-1215.70
0.0271,0.9729	-1215.74
0.0139,0.9861	-1208.63
0.0043,0.9957	-1203.37
0.0173,0.9827	-1221.48
0.0178,0.9822	-1225.52
0.0227,0.9773	-1214.57
0.0314,0.9686	-1230.72
0.0137,0.9863	-1212.88
0.0049,0.9951	-1203.27
0.0195,0.9805	-1229.50
0.0182,0.9818	-1221.54
0.0211,0.9789	-1218.03
0.0249,0.9751	-1218.79
0.0142,0.9858	-1217.17
0.0054,0.9946	-1208.42
0.0187,0.9813	-1209.71
0.0152,0.9848	-1229.75
0.0201,0.9799	-1229.50
0.0244,0.9756	-1226.06
0.0134,0.9866	-1208.55
0.0071,0.9929	-1208.13
0.0163,0.9837	-1205.02
0.0141,0.9859	-1208.68
0.0202,0.9798	-1221.75
0.0248,0.9752	-1226.12
0.0136,0.9864	-1217.15
0.0071,0.9929	-1208.13
0.0178,0.9822	-1221.51
0.0121,0.9879	-1203.95
0.0193,0.9807	-1229.50
0.0228,0.9772	-1225.86
0.0125,0.9875	-1208.41
0.0088,0.9912	-1212.80
0.0162,0.9838	-1213.21
0.0123,0.9877	-1203.99
0.0162,0.9838	-1209.11
0.0216,0.9784	-1229.55
0.0117,0.9883	-1208.29
0.0082,0.9918	-1203.27
0.0181,0.9819	-1221.53
0.0129,0.9871	-1212.80
0.0172,0.9828	-1225.52
0.0285,0.9715	-1233.78
0.0121,0.9879	-1203.95
0.0078,0.9922	-1203.23
0.0199,0.9801	-1225.61
0.0129,0.9871	-1208.46
0.0219,0.9781	-1206.76
0.0223,0.9777	-1225.81
0.0104,0.9896	-1212.71
0.0069,0.9931	-1203.18
0.0184,0.9816	-1217.57
0.0112,0.9888	-1212.71
0.0197,0.9803	-1213.86
0.0213,0.9787	-1229.54
0.0124,0.9876	-1208.39
0.0088,0.9912	-1203.35
0.0224,0.9776	-1225.82
0.0115,0.9885	-1208.27
0.0192,0.9808	-1213.76
0.0181,0.9819	-1221.53
0.0112,0.9888	-1217.19
0.0079,0.9921	-1203.24
0.0215,0.9785	-1210.45
0.0136,0.9864	-1217.15
0.0244,0.9756	-1226.06
0.0139,0.9861	-1212.90
0.0105,0.9895	-1203.62
0.0064,0.9936	-1208.22
0.0208,0.9792	-1221.82
0.0157,0.9843	-1213.14
0.0219,0.9781	-1221.97
0.0127,0.9873	-1212.79
0.0077,0.9923	-1203.22
0.0075,0.9925	-1203.21
0.0225,0.9775	-1210.75
0.0158,0.9842	-1217.28
0.0234,0.9766	-1211.02
0.0128,0.9872	-1208.45
0.0109,0.9891	-1203.70
0.0068,0.9932	-1203.18
0.0232,0.9768	-1222.17
0.0109,0.9891	-1221.72
0.0216,0.9784	-1225.74
0.0142,0.9858	-1208.69
0.0089,0.9911	-1212.79
0.0061,0.9939	-1203.17
0.0239,0.9761	-1214.86
0.0113,0.9887	-1212.72
0.0292,0.9708	-1223.35
0.0182,0.9818	-1217.55
0.0095,0.9905	-1203.45
0.0067,0.9933	-1203.18
0.0263,0.9737	-1226.34
0.0111,0.9889	-1226.17
0.0295,0.9705	-1233.90
0.0182,0.9818	-1233.51
0.0088,0.9912	-1208.07
0.0062,0.9938	-1208.25
0.0225,0.9775	-1222.06
0.0098,0.9902	-1212.73
0.0297,0.9703	-1212.99
0.0165,0.9835	-1225.52
0.0077,0.9923	-1203.23
0.0064,0.9936	-1213.26
0.0199,0.9801	-1213.91
0.0110,0.9890	-1208.21
0.0326,0.9674	-1234.34
0.0149,0.9851	-1217.21
0.0078,0.9922	-1203.24
0.0080,0.9920	-1217.73
0.0170,0.9830	-1225.52
0.0075,0.9925	-1203.21
0.0380,0.9620	-1225.59
0.0146,0.9854	-1212.98
0.0063,0.9937	-1203.17
0.0094,0.9906	-1203.43
0.0139,0.9861	-1217.16
0.0078,0.9922	-1203.23
0.0341,0.9659	-1224.53
0.0130,0.9870	-1212.81
0.0068,0.9932	-1208.16
0.0106,0.9894	-1208.17
0.0128,0.9872	-1212.79
0.0073,0.9927	-1213.03
0.0358,0.9642	-1228.29
0.0130,0.9870	-1217.14
0.0085,0.9915	-1217.59
0.0101,0.9899	-1212.71
0.0141,0.9859	-1212.92
0.0079,0.9921	-1203.25
0.0341,0.9659	-1244.60
0.0126,0.9874	-1204.07
0.0082,0.9918	-1203.28
0.0077,0.9923	-1208.09
0.0121,0.9879	-1212.75
0.0067,0.9933	-1213.17
0.0331,0.9669	-1220.90
0.0134,0.9866	-1212.85
0.0082,0.9918	-1203.27
0.0074,0.9926	-1203.20
0.0114,0.9886	-1226.11
0.0066,0.9934	-1213.20
0.0349,0.9651	-1241.34
0.0118,0.9882	-1221.59
0.0089,0.9911	-1212.78
0.0086,0.9914	-1212.81
0.0107,0.9893	-1203.65
0.0063,0.9937	-1213.29
0.0274,0.9726	-1222.96
0.0119,0.9881	-1212.74
0.0094,0.9906	-1203.43
0.0069,0.9931	-1208.15
0.0143,0.9857	-1208.70
0.0084,0.9916	-1208.07
0.0262,0.9738	-1219.10
0.0151,0.9849	-1221.40
0.0105,0.9895	-1212.71
0.0090,0.9910	-1208.07
0.0172,0.9828	-1221.47
0.0079,0.9921	-1203.24
0.0232,0.9768	-1210.95
0.0137,0.9863	-1208.60
0.0112,0.9888	-1217.19
0.0112,0.9888	-1221.67
0.0137,0.9863	-1217.16
0.0065,0.9935	-1208.19
0.0191,0.9809	-1225.56
0.0129,0.9871	-1217.14
0.0111,0.9889	-1221.69
0.0144,0.9856	-1217.18
0.0134,0.9866	-1208.55
0.0067,0.9933	-1203.17
0.0220,0.9780	-1214.40
0.0158,0.9842	-1221.41
0.0111,0.9889	-1217.20
0.0130,0.9870	-1208.48
0.0142,0.9858	-1212.93
0.0093,0.9907	-1212.75
0.0221,0.9779	-1210.62
0.0107,0.9893	-1208.18
0.0098,0.9902	-1212.72
0.0121,0.9879	-1203.94
0.0129,0.9871	-1208.47
0.0094,0.9906	-1208.09
0.0327,0.9673	-1220.80
0.0092,0.9908	-1203.40
0.0099,0.9901	-1217.32
0.0147,0.9853	-1213.00
0.0140,0.9860	-1208.66
0.0090,0.9910	-1208.07
0.0398,0.9602	-1235.65
0.0063,0.9937	-1208.22
0.0097,0.9903	-1208.11
0.0140,0.9860	-1212.91
0.0131,0.9869	-1212.82
0.0081,0.9919	-1208.07
0.0339,0.9661	-1227.85
0.0057,0.9943	-1203.19
0.0123,0.9877	-1217.15
0.0147,0.9853	-1221.40
0.0149,0.9851	-1204.65
0.0083,0.9917	-1208.07
0.0382,0.9618	-1238.55
0.0050,0.9950	-1208.55
0.0120,0.9880	-1212.74
0.0123,0.9877	-1212.76
0.0179,0.9821	-1221.51
0.0071,0.9929	-1203.19
0.0356,0.9644	-1244.73
0.0056,0.9944	-1213.54
0.0116,0.9884	-1203.83
0.0105,0.9895	-1212.71
0.0169,0.9831	-1217.39
0.0081,0.9919	-1227.33
0.0300,0.9700	-1223.53
0.0060,0.9940	-1203.17
0.0119,0.9881	-1212.74
0.0091,0.9909	-1208.08
0.0162,0.9838	-1209.11
0.0062,0.9938	-1203.17
0.0268,0.9732	-1222.83
0.0076,0.9924	-1208.09
0.0136,0.9864	-1212.87
0.0106,0.9894	-1212.71
0.0163,0.9837	-1209.12
0.0067,0.9933	-1203.17
0.0320,0.9680	-1234.25
0.0076,0.9924	-1203.22
0.0115,0.9885	-1208.26
0.0090,0.9910	-1203.37
0.0147,0.9853	-1221.40
0.0057,0.9943	-1213.51
0.0352,0.9648	-1224.83
0.0105,0.9895	-1221.80
0.0114,0.9886	-1208.26
0.0086,0.9914	-1203.32
0.0134,0.9866	-1204.25
0.0062,0.9938	-1203.17
0.0275,0.9725	-1226.55
0.0101,0.9899	-1208.13
0.0132,0.9868	-1212.83
0.0099,0.9901	-1217.33
0.0139,0.9861	-1221.42
0.0082,0.9918	-1212.86
0.0315,0.9685	-1223.89
0.0098,0.9902	-1208.11
0.0143,0.9857	-1225.65
0.0110,0.9890	-1212.71
0.0161,0.9839	-1209.09
0.0091,0.9909	-1212.77
0.0308,0.9692	-1223.71
0.0103,0.9897	-1208.15
0.0166,0.9834	-1213.27
0.0104,0.9896	-1212.71
0.0161,0.9839	-1213.20
0.0103,0.9897	-1217.28
0.0334,0.9666	-1210.90
0.0092,0.9908	-1212.76
0.0149,0.9851	-1221.40
0.0106,0.9894	-1217.24
0.0165,0.9835	-1213.27
0.0098,0.9902	-1217.35
0.0315,0.9685	-1220.47
0.0086,0.9914	-1208.07
0.0120,0.9880	-1225.98
0.0104,0.9896	-1212.71
0.0163,0.9837	-1213.23
0.0089,0.9911	-1203.36
0.0353,0.9647	-1224.87
0.0092,0.9908	-1212.76
0.0105,0.9895	-1208.16
0.0098,0.9902	-1203.50
0.0164,0.9836	-1217.34
0.0098,0.9902	-1208.11
0.0272,0.9728	-1208.61
0.0073,0.9927	-1203.20
0.0111,0.9889	-1203.73
0.0090,0.9910	-1212.78
0.0195,0.9805	-1233.41
0.0113,0.9887	-1217.19
0.0256,0.9744	-1237.15
0.0075,0.9925	-1208.10
0.0137,0.9863	-1212.88
0.0117,0.9883	-1208.30
0.0145,0.9855	-1217.19
0.0102,0.9898	-1208.14
0.0247,0.9753	-1215.07
0.0101,0.9899	-1212.72
0.0111,0.9889	-1217.20
0.0104,0.9896	-1212.71
0.0171,0.9829	-1209.32
0.0097,0.9903	-1212.73
0.0214,0.9786	-1218.07
0.0097,0.9903	-1208.11
0.0099,0.9901	-1212.72
0.0095,0.9905	-1203.44
0.0155,0.9845	-1213.10
0.0097,0.9903	-1212.73
0.0219,0.9781	-1218.17
0.0106,0.9894	-1208.18
0.0098,0.9902	-1212.73
0.0090,0.9910	-1208.07
0.0154,0.9846	-1217.25
0.0112,0.9888	-1212.71
0.0208,0.9792	-1225.67
0.0104,0.9896	-1208.16
0.0115,0.9885	-1203.81
0.0101,0.9899	-1208.13
0.0177,0.9823	-1229.54
0.0104,0.9896	-1212.71
0.0275,0.9725	-1215.85
0.0099,0.9901	-1203.50
0.0128,0.9872	-1208.44
0.0102,0.9898	-1203.56
0.0152,0.9848	-1208.88
0.0080,0.9920	-1203.25
0.0196,0.9804	-1225.59
0.0127,0.9873	-1212.79
0.0146,0.9854	-1212.98
0.0097,0.9903	-1208.10
0.0192,0.9808	-1217.70
0.0103,0.9897	-1208.15
0.0184,0.9816	-1209.63
0.0111,0.9889	-1212.71
0.0123,0.9877	-1208.38
0.0086,0.9914	-1208.07
0.0200,0.9800	-1213.94
0.0115,0.9885	-1208.26
0.0144,0.9856	-1217.18
0.0099,0.9901	-1208.12
0.0117,0.9883	-1208.30
0.0129,0.9871	-1221.48
0.0174,0.9826	-1209.38
0.0100,0.9900	-1212.72
0.0178,0.9822	-1213.48
0.0099,0.9901	-1203.51
0.0134,0.9866	-1225.74
0.0140,0.9860	-1221.42
0.0194,0.9806	-1217.73
0.0071,0.9929	-1208.13
0.0162,0.9838	-1225.53
0.0082,0.9918	-1208.07
0.0133,0.9867	-1212.84
0.0178,0.9822	-1229.53
0.0165,0.9835	-1205.08
0.0067,0.9933	-1223.17
0.0133,0.9867	-1212.84
0.0066,0.9934	-1203.17
0.0158,0.9842	-1204.89
0.0173,0.9827	-1217.44
0.0151,0.9849	-1221.40
0.0060,0.9940	-1203.17
0.0128,0.9872	-1208.44
0.0065,0.9935	-1203.17
0.0144,0.9856	-1221.41
0.0178,0.9822	-1213.49
0.0133,0.9867	-1212.83
0.0057,0.9943	-1208.35
0.0144,0.9856	-1229.86
0.0068,0.9932	-1213.14
0.0133,0.9867	-1217.15
0.0206,0.9794	-1217.93
0.0125,0.9875	-1208.41
0.0058,0.9942	-1208.32
0.0129,0.9871	-1212.80
0.0067,0.9933	-1208.18
0.0099,0.9901	-1212.72
0.0171,0.9829	-1213.36
0.0130,0.9870	-1204.15
0.0052,0.9948	-1213.73
0.0131,0.9869	-1212.82
0.0069,0.9931	-1203.18
0.0104,0.9896	-1203.60
0.0153,0.9847	-1229.73
0.0113,0.9887	-1208.24
0.0039,0.9961	-1214.56
0.0142,0.9858	-1208.69
0.0080,0.9920	-1212.89
0.0126,0.9874	-1204.06
0.0144,0.9856	-1204.51
0.0125,0.9875	-1217.14
0.0034,0.9966	-1203.67
0.0133,0.9867	-1212.84
0.0075,0.9925	-1203.21
0.0124,0.9876	-1204.02
0.0184,0.9816	-1217.59
0.0123,0.9877	-1217.15
0.0038,0.9962	-1203.51
0.0158,0.9842	-1204.89
0.0092,0.9908	-1212.76
0.0113,0.9887	-1208.24
0.0147,0.9853	-1204.60
0.0126,0.9874	-1208.42
0.0044,0.9956	-1203.35
0.0162,0.9838	-1221.42
0.0078,0.9922	-1208.08
0.0106,0.9894	-1212.71
0.0111,0.9889	-1208.22
0.0124,0.9876	-1212.77
0.0052,0.9948	-1203.23
0.0153,0.9847	-1204.75
0.0069,0.9931	-1203.18
0.0105,0.9895	-1208.16
0.0098,0.9902	-1208.11
0.0109,0.9891	-1217.22
0.0051,0.9949	-1208.50
0.0138,0.9862	-1212.89
0.0066,0.9934	-1203.17
0.0117,0.9883	-1208.29
0.0109,0.9891	-1212.71
0.0112,0.9888	-1208.23
0.0051,0.9949	-1203.24
0.0197,0.9803	-1209.97
0.0070,0.9930	-1213.09
0.0113,0.9887	-1212.72
0.0105,0.9895	-1208.16
0.0124,0.9876	-1212.77
0.0042,0.9958	-1208.85
0.0215,0.9785	-1225.73
0.0092,0.9908	-1222.12
0.0124,0.9876	-1208.40
0.0115,0.9885	-1208.27
0.0089,0.9911	-1222.21
0.0051,0.9949	-1203.24
0.0182,0.9818	-1205.58
0.0094,0.9906	-1203.43
0.0115,0.9885	-1212.72
0.0104,0.9896	-1203.60
0.0106,0.9894	-1203.64
0.0061,0.9939	-1203.17
0.0155,0.9845	-1208.96
0.0088,0.9912	-1208.07
0.0132,0.9868	-1212.83
0.0093,0.9907	-1212.75
0.0093,0.9907	-1212.75
0.0063,0.9937	-1213.31
0.0121,0.9879	-1212.75
0.0100,0.9900	-1203.53
0.0134,0.9866	-1204.25
0.0087,0.9913	-1208.07
0.0092,0.9908	-1203.40
0.0053,0.9947	-1208.46
0.0119,0.9881	-1203.90
0.0076,0.9924	-1203.22
0.0119,0.9881	-1217.16
0.0079,0.9921	-1203.24
0.0088,0.9912	-1208.07
0.0060,0.9940	-1203.17
0.0130,0.9870	-1217.14
0.0072,0.9928	-1213.04
0.0144,0.9856	-1208.73
0.0093,0.9907	-1203.42
0.0073,0.9927	-1208.11
0.0067,0.9933	-1208.17
0.0109,0.9891	-1212.71
0.0069,0.9931	-1203.18
0.0159,0.9841	-1213.16
0.0084,0.9916	-1212.84
0.0057,0.9943	-1203.19
0.0085,0.9915	-1212.82
0.0137,0.9863	-1204.32
0.0071,0.9929	-1208.13
0.0174,0.9826	-1209.38
0.0088,0.9912	-1217.52
0.0067,0.9933	-1203.17
0.0109,0.9891	-1208.20
0.0114,0.9886	-1208.26
0.0055,0.9945	-1213.59
0.0177,0.9823	-1213.47
0.0089,0.9911	-1203.35
0.0079,0.9921	-1212.92
0.0101,0.9899	-1208.13
0.0120,0.9880	-1217.15
0.0059,0.9941	-1208.31
0.0161,0.9839	-1209.09
0.0073,0.9927	-1203.20
0.0079,0.9921	-1203.25
0.0090,0.9910	-1217.48
0.0117,0.9883	-1203.85
0.0074,0.9926	-1208.11
0.0190,0.9810	-1213.73
0.0069,0.9931	-1203.18
0.0062,0.9938	-1213.31
0.0089,0.9911	-1212.78
0.0142,0.9858	-1208.69
0.0087,0.9913	-1208.07
0.0203,0.9797	-1221.76
0.0082,0.9918	-1203.28
0.0052,0.9948	-1213.72
0.0085,0.9915	-1208.07
0.0113,0.9887	-1203.77
0.0088,0.9912	-1208.07
0.0200,0.9800	-1210.03
0.0070,0.9930	-1218.03
0.0044,0.9956	-1203.35
0.0092,0.9908	-1203.40
0.0105,0.9895	-1208.16
0.0085,0.9915	-1203.30
0.0246,0.9754	-1222.42
0.0076,0.9924	-1208.09
0.0049,0.9951	-1203.26
0.0088,0.9912	-1203.35
0.0100,0.9900	-1208.13
0.0064,0.9936	-1208.21
0.0169,0.9831	-1213.33
0.0079,0.9921	-1203.25
0.0054,0.9946	-1213.62
0.0106,0.9894	-1217.24
0.0078,0.9922	-1203.24
0.0055,0.9945	-1208.39
0.0192,0.9808	-1213.77
0.0089,0.9911	-1217.49
0.0049,0.9951	-1208.58
0.0116,0.9884	-1203.83
0.0076,0.9924	-1212.96
0.0073,0.9927	-1203.20
0.0202,0.9798	-1229.51
0.0100,0.9900	-1208.12
0.0046,0.9954	-1203.30
0.0079,0.9921	-1212.91
0.0085,0.9915	-1203.31
0.0088,0.9912	-1212.79
0.0144,0.9856	-1212.96
0.0076,0.9924	-1208.09
0.0047,0.9953	-1203.30
0.0087,0.9913	-1208.07
0.0098,0.9902	-1203.50
0.0097,0.9903	-1217.36
0.0139,0.9861	-1212.90
0.0079,0.9921	-1208.08
0.0046,0.9954	-1203.32
0.0097,0.9903	-1203.49
0.0117,0.9883	-1217.17
0.0084,0.9916	-1217.61
0.0130,0.9870	-1212.81
0.0091,0.9909	-1212.76
0.0053,0.9947	-1208.46
0.0083,0.9917	-1212.86
0.0136,0.9864	-1208.58
0.0076,0.9924	-1203.22
0.0142,0.9858	-1212.94
0.0103,0.9897	-1208.15
0.0048,0.9952	-1203.27
0.0089,0.9911	-1217.50
0.0132,0.9868	-1212.83
0.0072,0.9928	-1208.12
0.0150,0.9850	-1213.03
0.0078,0.9922	-1208.08
0.0056,0.9944	-1203.19
0.0103,0.9897	-1208.14
0.0140,0.9860	-1208.66
0.0066,0.9934	-1203.17
0.0148,0.9852	-1213.01
0.0057,0.9943	-1203.19
0.0055,0.9945	-1203.20
0.0101,0.9899	-1203.55
0.0106,0.9894	-1221.79
0.0072,0.9928	-1203.19
0.0122,0.9878	-1217.15
0.0044,0.9956	-1203.34
0.0057,0.9943	-1213.53
0.0120,0.9880	-1203.93
0.0095,0.9905	-1212.74
0.0071,0.9929	-1208.13
0.0160,0.9840	-1213.17
0.0030,0.9970	-1203.87
0.0043,0.9957	-1203.38
0.0109,0.9891	-1212.71
0.0105,0.9895	-1203.61
0.0065,0.9935	-1203.17
0.0141,0.9859	-1208.67
0.0032,0.9968	-1203.73
0.0047,0.9953	-1203.30
0.0125,0.9875	-1212.77
0.0127,0.9873	-1212.79
0.0050,0.9950	-1213.86
0.0151,0.9849	-1213.04
0.0037,0.9963	-1214.73
0.0055,0.9945	-1213.58
0.0130,0.9870	-1204.15
0.0124,0.9876	-1212.76
0.0054,0.9946	-1208.43
0.0173,0.9827	-1221.48
0.0033,0.9967	-1215.11
0.0059,0.9941	-1213.43
0.0157,0.9843	-1208.99
0.0149,0.9851	-1208.82
0.0061,0.9939	-1208.26
0.0189,0.9811	-1221.60
0.0034,0.9966	-1203.65
0.0066,0.9934	-1208.19
0.0187,0.9813	-1213.66
0.0125,0.9875	-1217.14
0.0052,0.9948	-1203.23
0.0155,0.9845	-1213.11
0.0042,0.9958	-1208.89
0.0078,0.9922	-1217.79
0.0146,0.9854	-1208.76
0.0125,0.9875	-1212.78
0.0051,0.9949	-1208.51
0.0152,0.9848	-1204.71
0.0046,0.9954	-1203.31
0.0078,0.9922	-1203.24
0.0141,0.9859	-1212.92
0.0115,0.9885	-1217.17
0.0050,0.9950	-1208.55
0.0129,0.9871	-1212.81
0.0057,0.9943	-1203.19
0.0074,0.9926	-1208.10
0.0145,0.9855	-1208.74
0.0112,0.9888	-1217.19
0.0048,0.9952	-1208.60
0.0142,0.9858	-1204.45
0.0066,0.9934	-1203.17
0.0071,0.9929	-1203.19
0.0123,0.9877	-1208.37
0.0088,0.9912	-1217.53
0.0047,0.9953	-1208.65
0.0123,0.9877	-1208.38
0.0062,0.9938	-1213.31
0.0084,0.9916	-1212.84
0.0122,0.9878	-1225.93
0.0095,0.9905	-1212.74
0.0050,0.9950	-1208.53
0.0139,0.9861	-1212.90
0.0063,0.9937	-1208.24
0.0081,0.9919	-1212.89
0.0129,0.9871	-1204.12
0.0092,0.9908	-1226.80
0.0052,0.9948	-1213.74
0.0106,0.9894	-1212.71
0.0069,0.9931	-1208.15
0.0066,0.9934	-1208.18
0.0123,0.9877	-1203.99
0.0100,0.9900	-1208.12
0.0046,0.9954	-1203.32
0.0119,0.9881	-1212.74
0.0080,0.9920	-1212.90
0.0065,0.9935	-1213.22
0.0103,0.9897	-1203.59
0.0104,0.9896	-1217.27
0.0037,0.9963	-1203.55
0.0109,0.9891	-1212.71
0.0082,0.9918	-1212.86
0.0065,0.9935	-1203.17
0.0084,0.9916	-1212.84
0.0094,0.9906	-1212.75
0.0044,0.9956	-1219.58
0.0101,0.9899	-1212.72
0.0064,0.9936	-1203.17
0.0050,0.9950	-1219.14
0.0097,0.9903	-1208.10
0.0088,0.9912	-1208.07
0.0055,0.9945	-1208.40
0.0103,0.9897	-1208.14
0.0054,0.9946	-1208.43
0.0064,0.9936	-1213.27
0.0103,0.9897	-1208.15
0.0079,0.9921	-1212.90
0.0059,0.9941	-1203.18
0.0098,0.9902	-1203.50
0.0055,0.9945	-1213.59
0.0058,0.9942	-1203.18
0.0110,0.9890	-1208.21
0.0071,0.9929	-1213.07
0.0062,0.9938	-1208.24
0.0100,0.9900	-1221.91
0.0056,0.9944	-1203.19
0.0067,0.9933	-1203.17
0.0101,0.9899	-1221.88
0.0085,0.9915	-1208.07
0.0060,0.9940	-1203.17
0.0093,0.9907	-1212.75
0.0054,0.9946	-1208.42
0.0077,0.9923	-1208.09
0.0093,0.9907	-1208.08
0.0083,0.9917	-1222.42
0.0056,0.9944	-1208.38
0.0079,0.9921	-1208.08
0.0075,0.9925	-1212.98
0.0072,0.9928	-1217.99
0.0113,0.9887	-1208.25
0.0089,0.9911	-1217.49
0.0061,0.9939	-1208.27
0.0090,0.9910	-1203.37
0.0120,0.9880	-1203.92
0.0088,0.9912	-1208.07
0.0110,0.9890	-1217.21
0.0108,0.9892	-1226.27
0.0061,0.9939	-1203.17
0.0095,0.9905	-1212.74
0.0107,0.9893	-1217.24
0.0085,0.9915	-1203.31
0.0118,0.9882	-1208.31
0.0102,0.9898	-1212.71
0.0066,0.9934	-1208.19
0.0072,0.9928	-1203.19
0.0084,0.9916	-1222.38
0.0103,0.9897	-1208.15
0.0130,0.9870	-1208.49
0.0104,0.9896	-1212.71
0.0065,0.9935	-1208.21
0.0074,0.9926	-1213.00
0.0099,0.9901	-1212.72
0.0094,0.9906	-1203.43
0.0106,0.9894	-1212.71
0.0118,0.9882	-1212.73
0.0067,0.9933	-1218.19
0.0075,0.9925	-1203.22
0.0109,0.9891	-1208.20
0.0081,0.9919	-1203.26
0.0076,0.9924	-1208.09
0.0114,0.9886	-1212.72
0.0058,0.9942	-1208.33
0.0078,0.9922	-1208.08
0.0104,0.9896	-1212.71
0.0077,0.9923	-1203.23
0.0076,0.9924	-1203.22
0.0104,0.9896	-1203.59
0.0066,0.9934	-1208.19
0.0064,0.9936	-1208.21
0.0134,0.9866	-1217.15
0.0088,0.9912	-1212.80
0.0095,0.9905	-1208.09
0.0120,0.9880	-1225.97
0.0080,0.9920	-1203.25
0.0071,0.9929	-1208.13
0.0096,0.9904	-1208.10
0.0102,0.9898	-1221.86
0.0103,0.9897	-1221.85
0.0124,0.9876	-1212.77
0.0091,0.9909	-1217.46
0.0066,0.9934	-1203.17
0.0119,0.9881	-1208.31
0.0119,0.9881	-1217.16
0.0110,0.9890	-1208.21
0.0136,0.9864	-1225.72
0.0095,0.9905	-1217.39
0.0064,0.9936	-1208.22
0.0113,0.9887	-1217.19
0.0094,0.9906	-1203.43
0.0100,0.9900	-1212.72
0.0136,0.9864	-1221.44
0.0106,0.9894	-1203.64
0.0063,0.9937	-1208.24
0.0151,0.9849	-1208.87
0.0094,0.9906	-1222.05
0.0124,0.9876	-1208.39
0.0122,0.9878	-1203.98
0.0112,0.9888	-1217.19
0.0073,0.9927	-1213.03
0.0148,0.9852	-1213.01
0.0086,0.9914	-1208.07
0.0142,0.9858	-1208.69
0.0110,0.9890	-1212.71
0.0116,0.9884	-1212.72
0.0089,0.9911	-1208.07
0.0145,0.9855	-1217.19
0.0105,0.9895	-1208.16
0.0156,0.9844	-1213.12
0.0112,0.9888	-1203.75
0.0102,0.9898	-1208.14
0.0115,0.9885	-1212.72
0.0142,0.9858	-1225.65
0.0119,0.9881	-1203.91
0.0142,0.9858	-1212.93
0.0094,0.9906	-1208.09
0.0100,0.9900	-1208.12
0.0148,0.9852	-1217.20
0.0151,0.9849	-1217.23
0.0102,0.9898	-1208.13
0.0129,0.9871	-1212.80
0.0096,0.9904	-1208.10
0.0098,0.9902	-1208.11
0.0133,0.9867	-1208.54
0.0141,0.9859	-1204.43
0.0107,0.9893	-1212.71
0.0119,0.9881	-1203.91
0.0082,0.9918	-1203.27
0.0091,0.9909	-1212.77
0.0111,0.9889	-1208.22
0.0131,0.9869	-1221.46
0.0066,0.9934	-1203.17
0.0118,0.9882	-1203.88
0.0088,0.9912	-1208.07
0.0102,0.9898	-1203.56
0.0124,0.9876	-1208.39
0.0113,0.9887	-1212.72
0.0088,0.9912	-1212.80
0.0125,0.9875	-1217.14
0.0101,0.9899	-1212.72
0.0092,0.9908	-1212.76
0.0121,0.9879	-1208.34
0.0083,0.9917	-1203.28
0.0067,0.9933	-1208.17
0.0154,0.9846	-1217.25
0.0069,0.9931	-1218.08
0.0080,0.9920	-1208.07
0.0142,0.9858	-1217.17
0.0064,0.9936	-1208.21
0.0075,0.9925	-1203.21
0.0161,0.9839	-1221.42
0.0077,0.9923	-1208.09
0.0094,0.9906	-1212.75
0.0151,0.9849	-1221.40
0.0061,0.9939	-1223.55
0.0072,0.9928	-1203.20
0.0194,0.9806	-1221.65
0.0100,0.9900	-1217.32
0.0097,0.9903	-1212.73
0.0133,0.9867	-1204.23
0.0072,0.9928	-1203.20
0.0086,0.9914	-1203.32
0.0198,0.9802	-1213.89
0.0098,0.9902	-1212.73
0.0093,0.9907	-1212.75
0.0151,0.9849	-1204.69
0.0068,0.9932	-1208.16
0.0076,0.9924	-1212.97
0.0202,0.9798	-1225.63
0.0091,0.9909	-1212.77
0.0100,0.9900	-1203.52
0.0155,0.9845	-1217.26
0.0066,0.9934	-1203.17
0.0051,0.9949	-1208.52
0.0166,0.9834	-1217.36
0.0094,0.9906	-1208.09
0.0094,0.9906	-1212.74
0.0191,0.9809	-1213.75
0.0059,0.9941	-1203.18
0.0044,0.9956	-1203.36
0.0162,0.9838	-1209.10
0.0101,0.9899	-1217.30
0.0085,0.9915	-1208.07
0.0208,0.9792	-1214.12
0.0070,0.9930	-1203.18
0.0059,0.9941	-1203.18
0.0145,0.9855	-1208.75
0.0108,0.9892	-1203.67
0.0081,0.9919	-1203.27
0.0188,0.9812	-1221.60
0.0084,0.9916	-1208.07
0.0051,0.9949	-1208.50
0.0153,0.9847	-1217.24
0.0090,0.9910	-1208.07
0.0080,0.9920	-1208.08
0.0193,0.9807	-1213.79
0.0082,0.9918	-1203.27
0.0043,0.9957	-1203.38
0.0201,0.9799	-1206.18
0.0089,0.9911	-1217.51
0.0088,0.9912	-1217.52
0.0209,0.9791	-1214.14
0.0099,0.9901	-1212.72
0.0058,0.9942	-1208.33
0.0170,0.9830	-1217.41
0.0095,0.9905	-1212.74
0.0069,0.9931	-1208.15
0.0147,0.9853	-1208.79
0.0099,0.9901	-1208.11
0.0056,0.9944	-1203.19
0.0170,0.9830	-1209.28
0.0079,0.9921	-1212.91
0.0064,0.9936	-1208.21
0.0144,0.9856	-1208.73
0.0098,0.9902	-1208.11
0.0055,0.9945	-1203.20
0.0148,0.9852	-1213.01
0.0072,0.9928	-1213.04
0.0061,0.9939	-1228.67
0.0110,0.9890	-1203.72
0.0126,0.9874	-1212.78
0.0049,0.9951	-1213.87
0.0165,0.9835	-1205.07
0.0081,0.9919	-1217.70
0.0067,0.9933	-1203.17
0.0112,0.9888	-1212.71
0.0154,0.9846	-1208.92
0.0052,0.9948	-1203.22
0.0184,0.9816	-1217.58
0.0070,0.9930	-1203.18
0.0096,0.9904	-1203.46
0.0112,0.9888	-1203.76
0.0158,0.9842	-1217.28
0.0057,0.9943	-1203.19
0.0166,0.9834	-1221.44
0.0085,0.9915	-1208.07
0.0099,0.9901	-1212.72
0.0105,0.9895	-1221.80
0.0147,0.9853	-1217.20
0.0047,0.9953	-1203.29
0.0155,0.9845	-1208.95
0.0081,0.9919	-1203.27
0.0102,0.9898	-1212.71
0.0085,0.9915	-1208.07
0.0110,0.9890	-1212.71
0.0039,0.9961	-1209.00
0.0125,0.9875	-1208.41
0.0096,0.9904	-1217.37
0.0092,0.9908	-1217.44
0.0089,0.9911	-1203.36
0.0152,0.9848	-1208.88
0.0040,0.9960	-1203.45
0.0146,0.9854	-1208.76
0.0104,0.9896	-1212.71
0.0119,0.9881	-1208.32
0.0091,0.9909	-1208.08
0.0224,0.9776	-1222.04
0.0055,0.9945	-1213.58
0.0146,0.9854	-1208.78
0.0110,0.9890	-1217.21
0.0108,0.9892	-1221.74
0.0079,0.9921	-1208.08
0.0208,0.9792	-1221.81
0.0047,0.9953	-1208.65
0.0157,0.9843	-1213.13
0.0118,0.9882	-1217.16
0.0112,0.9888	-1217.19
0.0069,0.9931	-1208.15
0.0205,0.9795	-1214.05
0.0061,0.9939	-1208.27
0.0145,0.9855	-1208.75
0.0124,0.9876	-1204.02
0.0124,0.9876	-1204.01
0.0089,0.9911	-1203.35
0.0241,0.9759	-1218.62
0.0077,0.9923	-1203.23
0.0122,0.9878	-1208.37
0.0126,0.9874	-1225.86
0.0133,0.9867	-1208.53
0.0093,0.9907	-1203.42
0.0272,0.9728	-1215.76
0.0075,0.9925	-1212.98
0.0123,0.9877	-1203.98
0.0132,0.9868	-1208.52
0.0138,0.9862	-1217.16
0.0090,0.9910	-1212.78
0.0304,0.9696	-1227.09
0.0097,0.9903	-1203.48
0.0142,0.9858	-1217.17
0.0123,0.9877	-1212.76
0.0092,0.9908	-1208.08
0.0098,0.9902	-1217.34
0.0309,0.9691	-1234.08
0.0099,0.9901	-1212.72
0.0150,0.9850	-1213.03
0.0136,0.9864	-1217.15
0.0076,0.9924	-1217.83
0.0104,0.9896	-1212.71
0.0288,0.9712	-1237.33
0.0129,0.9871	-1217.14
0.0157,0.9843	-1221.41
0.0140,0.9860	-1212.91
0.0068,0.9932	-1203.18
0.0076,0.9924	-1203.22
0.0252,0.9748	-1229.83
0.0126,0.9874	-1208.42
0.0176,0.9824	-1221.49
0.0171,0.9829	-1209.32
0.0072,0.9928	-1203.19
0.0094,0.9906	-1203.44
0.0221,0.9779	-1206.84
0.0119,0.9881	-1203.89
0.0192,0.9808	-1213.77
0.0157,0.9843	-1213.14
0.0062,0.9938	-1213.32
0.0117,0.9883	-1208.30
0.0222,0.9778	-1218.23
0.0101,0.9899	-1217.30
0.0191,0.9809	-1217.68
0.0144,0.9856	-1204.50
0.0093,0.9907	-1203.42
0.0109,0.9891	-1212.71
0.0268,0.9732	-1230.02
0.0118,0.9882	-1217.16
0.0185,0.9815	-1217.60
0.0151,0.9849	-1221.40
0.0089,0.9911	-1208.07
0.0129,0.9871	-1217.14
0.0259,0.9741	-1233.53
0.0126,0.9874	-1221.50
0.0181,0.9819	-1213.55
0.0151,0.9849	-1204.68
0.0088,0.9912	-1222.24
0.0123,0.9877	-1208.37
0.0228,0.9772	-1222.11
0.0128,0.9872	-1204.10
0.0204,0.9796	-1225.64
0.0175,0.9825	-1209.39
0.0089,0.9911	-1208.07
0.0133,0.9867	-1225.75
0.0210,0.9790	-1221.84
0.0142,0.9858	-1217.17
0.0192,0.9808	-1205.91
0.0214,0.9786	-1218.07
0.0077,0.9923	-1212.94
0.0129,0.9871	-1212.81
0.0224,0.9776	-1218.26
0.0132,0.9868	-1221.46
0.0158,0.9842	-1217.28
0.0218,0.9782	-1225.75
0.0087,0.9913	-1212.80
0.0112,0.9888	-1208.23
0.0251,0.9749	-1215.18
0.0140,0.9860	-1212.91
0.0125,0.9875	-1208.41
0.0258,0.9742	-1211.76
0.0067,0.9933	-1208.18
0.0122,0.9878	-1208.37
0.0202,0.9798	-1213.97
0.0135,0.9865	-1208.57
0.0145,0.9855	-1208.74
0.0254,0.9746	-1226.21
0.0059,0.9941	-1213.44
0.0117,0.9883	-1230.46
0.0179,0.9821	-1217.51
0.0153,0.9847	-1213.07
0.0110,0.9890	-1208.21
0.0244,0.9756	-1222.38
0.0065,0.9935	-1203.17
0.0132,0.9868	-1212.83
0.0182,0.9818	-1213.56
0.0154,0.9846	-1213.10
0.0098,0.9902	-1203.50
0.0240,0.9760	-1214.90
0.0072,0.9928	-1222.91
0.0131,0.9869	-1208.50
0.0139,0.9861	-1212.90
0.0129,0.9871	-1217.14
0.0104,0.9896	-1226.37
0.0254,0.9746	-1226.21
0.0084,0.9916	-1208.07
0.0149,0.9851	-1217.21
0.0137,0.9863	-1208.60
0.0161,0.9839	-1213.19
0.0091,0.9909	-1212.77
0.0274,0.9726	-1226.52
0.0104,0.9896	-1217.26
0.0120,0.9880	-1208.33
0.0163,0.9837	-1217.33
0.0160,0.9840	-1209.05
0.0093,0.9907	-1208.08
0.0279,0.9721	-1233.72
0.0103,0.9897	-1208.15
0.0142,0.9858	-1212.93
0.0143,0.9857	-1212.94
0.0149,0.9851	-1204.65
0.0103,0.9897	-1208.14
0.0309,0.9691	-1237.53
0.0120,0.9880	-1208.33
0.0116,0.9884	-1208.28
0.0161,0.9839	-1217.31
0.0152,0.9848	-1204.72
0.0119,0.9881	-1208.32
0.0283,0.9717	-1212.55
0.0132,0.9868	-1217.14
0.0132,0.9868	-1221.46
0.0159,0.9841	-1217.29
0.0196,0.9804	-1221.68
0.0100,0.9900	-1203.53
0.0244,0.9756	-1215.00
0.0137,0.9863	-1208.60
0.0153,0.9847	-1217.24
0.0174,0.9826	-1209.39
0.0181,0.9819	-1213.54
0.0074,0.9926	-1208.10
0.0228,0.9772	-1214.58
0.0148,0.9852	-1217.21
0.0166,0.9834	-1217.36
0.0137,0.9863	-1212.88
0.0174,0.9826	-1213.42
0.0072,0.9928	-1208.12
0.0239,0.9761	-1218.59
0.0168,0.9832	-1221.45
0.0154,0.9846	-1221.41
0.0120,0.9880	-1208.33
0.0204,0.9796	-1210.15
0.0081,0.9919	-1208.07
0.0256,0.9744	-1218.95
0.0140,0.9860	-1212.91
0.0138,0.9862	-1212.89
0.0124,0.9876	-1208.40
0.0169,0.9831	-1213.33
0.0054,0.9946	-1203.21
0.0224,0.9776	-1206.96
0.0145,0.9855	-1217.19
0.0174,0.9826	-1205.34
0.0138,0.9862	-1217.16
0.0153,0.9847	-1217.24
0.0052,0.9948	-1203.22
0.0176,0.9824	-1233.57
0.0141,0.9859	-1208.68
0.0171,0.9829	-1225.52
0.0120,0.9880	-1208.33
0.0178,0.9822	-1217.50
0.0058,0.9942	-1203.18
0.0132,0.9868	-1204.21
0.0142,0.9858	-1217.17
0.0190,0.9810	-1221.61
0.0151,0.9849	-1213.04
0.0187,0.9813	-1209.71
0.0056,0.9944	-1218.76
0.0144,0.9856	-1208.72
0.0117,0.9883	-1208.30
0.0213,0.9787	-1214.24
0.0106,0.9894	-1208.17
0.0156,0.9844	-1225.55
0.0063,0.9937	-1218.35
0.0178,0.9822	-1217.50
0.0120,0.9880	-1221.57
0.0188,0.9812	-1213.69
0.0112,0.9888	-1217.20
0.0140,0.9860	-1208.65
0.0066,0.9934	-1208.18
0.0162,0.9838	-1209.11
0.0127,0.9873	-1221.50
0.0145,0.9855	-1208.75
0.0113,0.9887	-1217.19
0.0129,0.9871	-1212.81
0.0076,0.9924	-1203.22
0.0129,0.9871	-1212.81
0.0109,0.9891	-1217.22
0.0100,0.9900	-1212.72
0.0102,0.9898	-1208.14
0.0122,0.9878	-1217.15
0.0069,0.9931	-1203.18
0.0124,0.9876	-1212.77
0.0138,0.9862	-1212.88
0.0092,0.9908	-1212.76
0.0080,0.9920	-1208.07
0.0139,0.9861	-1204.38
0.0067,0.9933	-1208.17
0.0110,0.9890	-1212.71
0.0156,0.9844	-1217.27
