#isoforms=['ENSG00000110080.SE.2.A.up_ENSG00000110080.SE.2.A.SE1_ENSG00000110080.SE.2.A.dn','ENSG00000110080.SE.2.B.up_ENSG00000110080.SE.2.B.dn']	exon_lens=('ENSG00000110080.SE.2.A.up',61),('ENSG00000110080.SE.2.A.SE1',96),('ENSG00000110080.SE.2.A.dn',190),('ENSG00000110080.SE.2.B.up',61),('ENSG00000110080.SE.2.B.dn',190)	iters=5000	burn_in=500	lag=10	percent_accept=94.44	proposal_type=drift	counts=(0,0):162,(1,0):140,(1,1):264	assigned_counts=0:379,1:25	chrom=chr11	strand=+	mRNA_starts=126407574,126407574	mRNA_ends=126408496,126408496
sampled_psi	log_score
0.9306,0.0694	-2378.66
0.8923,0.1077	-2373.57
0.9384,0.0616	-2360.07
0.8938,0.1062	-2381.91
0.9206,0.0794	-2398.10
0.9461,0.0539	-2362.78
0.9277,0.0723	-2383.67
0.9133,0.0867	-2385.69
0.9357,0.0643	-2376.25
0.9089,0.0911	-2411.00
0.9117,0.0883	-2376.34
0.9512,0.0488	-2365.93
0.9446,0.0554	-2365.59
0.8935,0.1065	-2403.21
0.9393,0.0607	-2362.77
0.8966,0.1034	-2370.91
0.9176,0.0824	-2385.75
0.9525,0.0475	-2354.04
0.9397,0.0603	-2365.51
0.8833,0.1167	-2405.10
0.9309,0.0691	-2373.47
0.8856,0.1144	-2384.66
0.9158,0.0842	-2378.56
0.9448,0.0552	-2365.60
0.9312,0.0688	-2365.66
0.8901,0.1099	-2390.58
0.9396,0.0604	-2357.28
0.8953,0.1047	-2416.14
0.9175,0.0825	-2383.34
0.9481,0.0519	-2359.92
0.9250,0.0750	-2365.95
0.8974,0.1026	-2401.18
0.9521,0.0479	-2374.97
0.8680,0.1320	-2405.30
0.9200,0.0800	-2395.59
0.9580,0.0420	-2335.34
0.9282,0.0718	-2386.26
0.8868,0.1132	-2403.08
0.9482,0.0518	-2359.92
0.8759,0.1241	-2412.93
0.8954,0.1046	-2375.35
0.9565,0.0435	-2357.16
0.9284,0.0716	-2368.33
0.8394,0.1606	-2412.08
0.9482,0.0518	-2345.39
0.8726,0.1274	-2397.47
0.8928,0.1072	-2390.47
0.9589,0.0411	-2350.99
0.9416,0.0584	-2373.87
0.8496,0.1504	-2421.86
0.9418,0.0582	-2365.53
0.8838,0.1162	-2394.95
0.8981,0.1019	-2381.62
0.9652,0.0348	-2334.64
0.9430,0.0570	-2362.75
0.8336,0.1664	-2422.19
0.9372,0.0628	-2365.52
0.8962,0.1038	-2381.74
0.8985,0.1015	-2385.95
0.9618,0.0382	-2334.94
0.9431,0.0569	-2357.13
0.8726,0.1274	-2403.25
0.9300,0.0700	-2368.29
0.8869,0.1131	-2390.73
0.8807,0.1193	-2403.09
0.9572,0.0428	-2335.44
0.9490,0.0510	-2365.78
0.8662,0.1338	-2392.29
0.9465,0.0535	-2357.04
0.9102,0.0898	-2376.42
0.8728,0.1272	-2405.17
0.9509,0.0491	-2357.01
0.9613,0.0387	-2351.05
0.8760,0.1240	-2399.25
0.9534,0.0466	-2348.00
0.9105,0.0895	-2374.08
0.8483,0.1517	-2409.82
0.9504,0.0496	-2365.87
0.9565,0.0435	-2350.98
0.9008,0.0992	-2407.93
0.9643,0.0357	-2347.90
0.9149,0.0851	-2395.21
0.8585,0.1415	-2447.18
0.9487,0.0513	-2359.93
0.9506,0.0494	-2354.05
0.9065,0.0935	-2390.26
0.9616,0.0384	-2341.40
0.9236,0.0764	-2380.99
0.8768,0.1232	-2393.33
0.9418,0.0582	-2357.18
0.9486,0.0514	-2348.27
0.9067,0.0933	-2385.72
0.9580,0.0420	-2347.86
0.9329,0.0671	-2360.34
0.8616,0.1384	-2401.90
0.9390,0.0610	-2379.18
0.9583,0.0417	-2372.93
0.8950,0.1050	-2379.68
0.9675,0.0325	-2334.47
0.9433,0.0567	-2354.31
0.8639,0.1361	-2398.06
0.9284,0.0716	-2388.84
0.9657,0.0343	-2351.29
0.9042,0.0958	-2390.26
0.9545,0.0455	-2326.66
0.9481,0.0519	-2354.11
0.8902,0.1098	-2401.03
0.9402,0.0598	-2346.23
0.9643,0.0357	-2347.90
0.9005,0.0995	-2385.88
0.9443,0.0557	-2354.26
0.9498,0.0502	-2354.07
0.8742,0.1258	-2393.51
0.9366,0.0634	-2346.68
0.9640,0.0360	-2347.89
0.9011,0.0989	-2388.06
0.9438,0.0562	-2354.29
0.9641,0.0359	-2338.02
0.8648,0.1352	-2412.84
0.9444,0.0556	-2368.42
0.9645,0.0355	-2344.60
0.8731,0.1269	-2397.44
0.9507,0.0493	-2354.05
0.9646,0.0354	-2341.30
0.8830,0.1170	-2403.07
0.9447,0.0553	-2359.92
0.9618,0.0382	-2367.19
0.8906,0.1094	-2401.04
0.9439,0.0561	-2348.64
0.9691,0.0309	-2358.49
0.9033,0.0967	-2394.73
0.9506,0.0494	-2348.14
0.9618,0.0382	-2331.71
0.8784,0.1216	-2387.30
0.9401,0.0599	-2346.24
0.9677,0.0323	-2337.86
0.8950,0.1050	-2394.68
0.9529,0.0471	-2342.01
0.9551,0.0449	-2350.99
0.8667,0.1333	-2407.21
0.9377,0.0623	-2376.36
0.9678,0.0322	-2337.86
0.8942,0.1058	-2390.42
0.9552,0.0448	-2360.17
0.9513,0.0487	-2348.10
0.8812,0.1188	-2403.08
0.9274,0.0726	-2360.73
0.9714,0.0286	-2330.76
0.8899,0.1101	-2421.92
0.9685,0.0315	-2327.57
0.9500,0.0500	-2351.12
0.8756,0.1244	-2412.92
0.9268,0.0732	-2368.39
0.9710,0.0290	-2348.34
0.9121,0.0879	-2381.00
0.9647,0.0353	-2334.68
0.9428,0.0572	-2351.54
0.8633,0.1367	-2416.54
0.9413,0.0587	-2354.43
0.9726,0.0274	-2327.11
0.9182,0.0818	-2378.51
0.9645,0.0355	-2344.60
0.9373,0.0627	-2362.82
0.8847,0.1153	-2417.34
0.9341,0.0659	-2360.27
0.9748,0.0252	-2326.92
0.9159,0.0841	-2364.23
0.9659,0.0341	-2344.62
0.9357,0.0643	-2378.93
0.8891,0.1109	-2394.78
0.9366,0.0634	-2373.61
0.9771,0.0229	-2326.76
0.9184,0.0816	-2373.67
0.9743,0.0257	-2334.23
0.9460,0.0540	-2354.19
0.8884,0.1116	-2376.13
0.9319,0.0681	-2357.78
0.9776,0.0224	-2338.06
0.9170,0.0830	-2371.32
0.9751,0.0249	-2348.91
0.9579,0.0421	-2363.48
0.8905,0.1095	-2401.04
0.9203,0.0797	-2373.60
0.9760,0.0240	-2334.24
0.8969,0.1031	-2401.16
0.9755,0.0245	-2323.18
0.9605,0.0395	-2338.26
0.9105,0.0895	-2388.00
0.9395,0.0605	-2340.82
0.9731,0.0269	-2330.65
0.8993,0.1007	-2390.30
0.9743,0.0257	-2348.78
0.9637,0.0363	-2351.16
0.9363,0.0637	-2354.78
0.9368,0.0632	-2352.05
0.9771,0.0229	-2330.51
0.9091,0.0909	-2364.96
0.9673,0.0327	-2337.87
0.9639,0.0361	-2338.03
0.9371,0.0629	-2370.92
0.9365,0.0635	-2362.84
0.9839,0.0161	-2322.53
0.9009,0.0991	-2377.03
0.9708,0.0292	-2334.31
0.9761,0.0239	-2323.12
0.9252,0.0748	-2363.43
0.9454,0.0546	-2388.43
0.9833,0.0167	-2326.63
0.8941,0.1059	-2388.29
0.9749,0.0251	-2330.57
0.9710,0.0290	-2316.75
0.9272,0.0728	-2363.29
0.9417,0.0583	-2365.53
0.9823,0.0177	-2318.58
0.8861,0.1139	-2386.67
0.9732,0.0268	-2334.24
0.9749,0.0251	-2341.55
0.9249,0.0751	-2378.51
0.9448,0.0552	-2379.80
0.9832,0.0168	-2318.48
0.8739,0.1261	-2391.60
0.9752,0.0248	-2341.58
0.9791,0.0209	-2315.13
0.9314,0.0686	-2347.40
0.9405,0.0595	-2368.28
0.9846,0.0154	-2334.99
0.8449,0.1551	-2418.51
0.9810,0.0190	-2330.56
0.9721,0.0279	-2327.17
0.9452,0.0548	-2362.76
0.9413,0.0587	-2359.97
0.9861,0.0139	-2326.78
0.8268,0.1732	-2424.04
0.9824,0.0176	-2334.66
0.9769,0.0231	-2319.28
0.9461,0.0539	-2359.91
0.9430,0.0570	-2357.13
0.9869,0.0131	-2305.24
0.8137,0.1863	-2429.20
0.9796,0.0204	-2322.77
0.9766,0.0234	-2330.52
0.9422,0.0578	-2348.79
0.9471,0.0529	-2357.03
0.9883,0.0117	-2309.29
0.7926,0.2074	-2454.74
0.9801,0.0199	-2326.63
0.9795,0.0205	-2326.65
0.9469,0.0531	-2374.32
0.9490,0.0510	-2365.78
0.9839,0.0161	-2314.31
0.8164,0.1836	-2441.01
0.9849,0.0151	-2326.69
0.9790,0.0210	-2322.82
0.9467,0.0533	-2380.05
0.9519,0.0481	-2357.02
0.9863,0.0137	-2335.35
0.8147,0.1853	-2439.52
0.9851,0.0149	-2314.13
0.9784,0.0216	-2326.69
0.9482,0.0518	-2359.92
0.9438,0.0562	-2357.11
0.9864,0.0136	-2343.95
0.8018,0.1982	-2432.70
0.9850,0.0150	-2322.51
0.9788,0.0212	-2330.51
0.9484,0.0516	-2354.10
0.9516,0.0484	-2360.00
0.9880,0.0120	-2313.76
0.8263,0.1737	-2417.83
0.9883,0.0117	-2313.73
0.9831,0.0169	-2338.81
0.9446,0.0554	-2351.41
0.9489,0.0511	-2348.24
0.9886,0.0114	-2313.69
0.8213,0.1787	-2427.36
0.9921,0.0079	-2318.30
0.9859,0.0141	-2318.26
0.9367,0.0633	-2370.92
0.9445,0.0555	-2365.59
0.9866,0.0134	-2309.63
0.8131,0.1869	-2432.17
0.9912,0.0088	-2313.50
0.9860,0.0140	-2314.01
0.9379,0.0621	-2362.80
0.9477,0.0523	-2359.92
0.9808,0.0192	-2322.68
0.7879,0.2121	-2440.21
0.9921,0.0079	-2303.80
0.9806,0.0194	-2326.62
0.9345,0.0655	-2365.56
0.9460,0.0540	-2354.18
0.9842,0.0158	-2334.93
0.8053,0.1947	-2439.60
0.9944,0.0056	-2313.52
0.9762,0.0238	-2352.83
0.9386,0.0614	-2381.88
0.9499,0.0501	-2351.13
0.9839,0.0161	-2322.53
0.8143,0.1857	-2438.04
0.9950,0.0050	-2308.29
0.9756,0.0244	-2323.17
0.9316,0.0684	-2376.09
0.9478,0.0522	-2359.92
0.9834,0.0166	-2338.88
0.8126,0.1874	-2426.32
0.9956,0.0044	-2313.68
0.9721,0.0279	-2330.72
0.9237,0.0763	-2361.04
0.9546,0.0454	-2354.04
0.9820,0.0180	-2318.61
0.7836,0.2164	-2437.86
0.9947,0.0053	-2308.32
0.9698,0.0302	-2351.69
0.9305,0.0695	-2381.25
0.9572,0.0428	-2350.98
0.9827,0.0173	-2326.62
0.7803,0.2197	-2460.91
0.9940,0.0060	-2308.39
0.9642,0.0358	-2354.48
0.9183,0.0817	-2380.93
0.9593,0.0407	-2338.36
0.9815,0.0185	-2326.61
0.8016,0.1984	-2442.48
0.9918,0.0082	-2327.85
0.9696,0.0304	-2355.14
0.9195,0.0805	-2402.86
0.9536,0.0464	-2341.94
0.9809,0.0191	-2334.50
0.8160,0.1840	-2430.58
0.9911,0.0089	-2308.79
0.9730,0.0270	-2341.42
0.9389,0.0611	-2360.05
0.9448,0.0552	-2351.40
0.9796,0.0204	-2326.65
0.8275,0.1725	-2424.01
0.9900,0.0100	-2313.57
0.9748,0.0252	-2334.23
0.9402,0.0598	-2348.99
0.9483,0.0517	-2351.20
0.9753,0.0247	-2319.53
0.8436,0.1564	-2416.86
0.9924,0.0076	-2313.46
0.9665,0.0335	-2331.18
0.9387,0.0613	-2398.25
0.9479,0.0521	-2359.92
0.9670,0.0330	-2331.13
0.8465,0.1535	-2423.59
0.9933,0.0067	-2313.47
0.9719,0.0281	-2327.18
0.9312,0.0688	-2368.26
0.9453,0.0547	-2354.22
0.9752,0.0248	-2326.89
0.8275,0.1725	-2409.91
0.9940,0.0060	-2308.39
0.9686,0.0314	-2354.99
0.9307,0.0693	-2378.66
0.9349,0.0651	-2381.54
0.9715,0.0285	-2327.23
0.8220,0.1780	-2425.81
0.9952,0.0048	-2308.28
0.9586,0.0414	-2341.56
0.9295,0.0705	-2376.04
0.9341,0.0659	-2384.13
0.9707,0.0293	-2341.31
0.8151,0.1849	-2448.42
0.9942,0.0058	-2323.79
0.9739,0.0261	-2323.37
0.9289,0.0711	-2368.32
0.9224,0.0776	-2385.92
0.9703,0.0297	-2351.76
0.8221,0.1779	-2441.11
0.9940,0.0060	-2308.39
0.9689,0.0311	-2341.27
0.9398,0.0602	-2349.02
0.9341,0.0659	-2389.44
0.9658,0.0342	-2351.30
0.8235,0.1765	-2430.36
0.9939,0.0061	-2303.30
0.9774,0.0226	-2330.51
0.9480,0.0520	-2377.34
0.9374,0.0626	-2362.81
0.9726,0.0274	-2337.82
0.8414,0.1586	-2433.64
0.9955,0.0045	-2302.88
0.9819,0.0181	-2314.63
0.9479,0.0521	-2362.82
0.9420,0.0580	-2359.96
0.9799,0.0201	-2338.29
0.8328,0.1672	-2425.43
0.9955,0.0045	-2319.06
0.9814,0.0186	-2314.72
0.9450,0.0550	-2365.60
0.9573,0.0427	-2344.76
0.9823,0.0177	-2322.60
0.8145,0.1855	-2417.32
0.9951,0.0049	-2313.60
0.9774,0.0226	-2341.81
0.9435,0.0565	-2362.75
0.9569,0.0431	-2350.98
0.9818,0.0182	-2306.68
0.8275,0.1725	-2422.45
0.9949,0.0051	-2318.86
0.9784,0.0216	-2326.69
0.9389,0.0611	-2351.85
0.9541,0.0459	-2332.79
0.9753,0.0247	-2337.91
0.8091,0.1909	-2433.77
0.9953,0.0047	-2308.27
0.9816,0.0184	-2326.61
0.9518,0.0482	-2368.95
0.9580,0.0420	-2347.86
0.9742,0.0258	-2312.43
0.8112,0.1888	-2438.07
0.9947,0.0053	-2308.32
0.9807,0.0193	-2322.69
0.9498,0.0502	-2359.95
0.9533,0.0467	-2351.02
0.9765,0.0235	-2352.89
0.8351,0.1649	-2420.51
0.9958,0.0042	-2313.72
0.9807,0.0193	-2318.77
0.9593,0.0407	-2332.04
0.9580,0.0420	-2338.47
0.9790,0.0210	-2349.72
0.8469,0.1531	-2418.46
0.9955,0.0045	-2308.26
0.9736,0.0264	-2327.02
0.9507,0.0493	-2359.97
0.9472,0.0528	-2348.37
0.9745,0.0255	-2330.59
0.8318,0.1682	-2419.06
0.9942,0.0058	-2308.37
0.9727,0.0273	-2327.11
0.9453,0.0547	-2365.61
0.9566,0.0434	-2347.88
0.9776,0.0224	-2334.28
0.8262,0.1738	-2425.63
0.9924,0.0076	-2308.59
0.9676,0.0324	-2341.26
0.9314,0.0686	-2365.65
0.9632,0.0368	-2351.13
0.9825,0.0175	-2314.54
0.8301,0.1699	-2438.19
0.9931,0.0069	-2308.49
0.9727,0.0273	-2341.40
0.9380,0.0620	-2379.10
0.9598,0.0402	-2341.49
0.9793,0.0207	-2342.08
0.8082,0.1918	-2428.06
0.9943,0.0057	-2308.35
0.9705,0.0295	-2341.31
0.9295,0.0705	-2376.04
0.9584,0.0416	-2338.44
0.9800,0.0200	-2338.31
0.7871,0.2129	-2441.55
0.9942,0.0058	-2303.22
0.9697,0.0303	-2344.75
0.9205,0.0795	-2378.49
0.9665,0.0335	-2361.44
0.9780,0.0220	-2334.30
0.7989,0.2011	-2423.21
0.9958,0.0042	-2308.25
0.9641,0.0359	-2341.31
0.9163,0.0837	-2390.51
0.9596,0.0404	-2332.00
0.9788,0.0212	-2315.18
0.8362,0.1638	-2420.46
0.9959,0.0041	-2308.24
0.9677,0.0323	-2341.26
0.9073,0.0927	-2381.14
0.9606,0.0394	-2347.84
0.9824,0.0176	-2318.57
0.8555,0.1445	-2420.11
0.9954,0.0046	-2302.90
0.9680,0.0320	-2337.86
0.8975,0.1025	-2392.50
0.9618,0.0382	-2347.84
0.9767,0.0233	-2338.00
0.8619,0.1381	-2411.03
0.9956,0.0044	-2319.12
0.9583,0.0417	-2357.26
0.8845,0.1155	-2394.93
0.9653,0.0347	-2324.65
0.9771,0.0229	-2338.02
0.8780,0.1220	-2401.15
0.9962,0.0038	-2308.24
0.9614,0.0386	-2344.63
0.8872,0.1128	-2421.65
0.9607,0.0393	-2351.03
0.9776,0.0224	-2334.29
0.8740,0.1260	-2410.95
0.9963,0.0037	-2302.65
0.9716,0.0284	-2327.21
0.8870,0.1130	-2390.72
0.9632,0.0368	-2328.27
0.9783,0.0217	-2341.93
0.8972,0.1028	-2405.50
0.9951,0.0049	-2329.55
0.9673,0.0327	-2351.42
0.8697,0.1303	-2403.35
0.9597,0.0403	-2331.98
0.9794,0.0206	-2322.79
0.8867,0.1133	-2401.02
0.9959,0.0041	-2302.75
0.9617,0.0383	-2341.40
0.8657,0.1343	-2407.24
0.9661,0.0339	-2344.62
0.9728,0.0272	-2341.41
0.8878,0.1122	-2390.68
0.9968,0.0032	-2313.97
0.9572,0.0428	-2350.98
0.8694,0.1306	-2397.67
0.9677,0.0323	-2337.86
0.9761,0.0239	-2345.38
0.8782,0.1218	-2397.19
0.9966,0.0034	-2313.93
0.9627,0.0373	-2338.10
0.8792,0.1208	-2381.27
0.9702,0.0298	-2341.30
0.9743,0.0257	-2330.60
0.8662,0.1338	-2407.23
0.9963,0.0037	-2308.24
0.9628,0.0372	-2341.35
0.8733,0.1267	-2391.64
0.9723,0.0277	-2327.14
0.9743,0.0257	-2330.60
0.8938,0.1062	-2388.30
0.9966,0.0034	-2308.24
0.9577,0.0423	-2363.46
0.8636,0.1364	-2390.70
0.9766,0.0234	-2330.52
0.9710,0.0290	-2344.83
0.9000,0.1000	-2403.47
0.9964,0.0036	-2302.60
0.9658,0.0342	-2344.62
0.8548,0.1452	-2421.88
0.9789,0.0211	-2315.16
0.9687,0.0313	-2361.86
0.9084,0.0916	-2362.75
0.9963,0.0037	-2308.24
0.9691,0.0309	-2317.17
0.8387,0.1613	-2423.67
0.9783,0.0217	-2319.09
0.9689,0.0311	-2330.96
0.9073,0.0927	-2360.61
0.9969,0.0031	-2308.25
0.9698,0.0302	-2320.47
0.8307,0.1693	-2414.35
0.9781,0.0219	-2326.71
0.9726,0.0274	-2334.25
0.8980,0.1020	-2381.62
0.9961,0.0039	-2313.79
0.9639,0.0361	-2341.32
0.8374,0.1626	-2408.95
0.9778,0.0222	-2326.72
0.9748,0.0252	-2323.26
0.8970,0.1030	-2388.18
0.9939,0.0061	-2318.58
0.9650,0.0350	-2341.29
0.8392,0.1608	-2417.05
0.9804,0.0196	-2334.45
0.9740,0.0260	-2326.99
0.9009,0.0991	-2368.20
0.9922,0.0078	-2318.32
0.9685,0.0315	-2330.99
0.8410,0.1590	-2423.63
0.9834,0.0166	-2318.47
0.9749,0.0251	-2323.25
0.9011,0.0989	-2392.48
0.9931,0.0069	-2313.46
0.9684,0.0316	-2317.31
0.8377,0.1623	-2413.84
0.9855,0.0145	-2326.73
0.9708,0.0292	-2337.81
0.9024,0.0976	-2388.04
0.9930,0.0070	-2303.55
0.9720,0.0280	-2341.36
0.8309,0.1691	-2420.70
0.9831,0.0169	-2326.62
0.9762,0.0238	-2341.67
0.9011,0.0989	-2401.32
0.9926,0.0074	-2328.14
0.9623,0.0377	-2351.09
0.8687,0.1313	-2397.72
0.9793,0.0207	-2334.37
0.9809,0.0191	-2334.49
0.9026,0.0974	-2383.58
0.9932,0.0068	-2318.45
0.9679,0.0321	-2344.67
0.8697,0.1303	-2399.55
0.9800,0.0200	-2330.53
0.9835,0.0165	-2322.55
0.8947,0.1053	-2413.94
0.9915,0.0085	-2323.00
0.9635,0.0365	-2360.97
0.8693,0.1307	-2405.26
0.9793,0.0207	-2315.08
0.9809,0.0191	-2314.80
0.8876,0.1124	-2382.42
0.9912,0.0088	-2308.78
0.9651,0.0349	-2337.97
0.8729,0.1271	-2399.39
0.9777,0.0223	-2341.85
0.9815,0.0185	-2330.58
0.8645,0.1355	-2401.72
0.9893,0.0107	-2322.69
0.9723,0.0277	-2330.71
0.8520,0.1480	-2423.61
0.9775,0.0225	-2341.82
0.9754,0.0246	-2334.23
0.8568,0.1432	-2418.33
0.9869,0.0131	-2313.89
0.9763,0.0237	-2319.38
0.8688,0.1312	-2392.04
0.9805,0.0195	-2318.79
0.9787,0.0213	-2326.68
0.8823,0.1177	-2403.07
0.9824,0.0176	-2322.59
0.9818,0.0182	-2330.60
0.8486,0.1514	-2397.73
0.9793,0.0207	-2311.24
0.9755,0.0245	-2337.92
0.8922,0.1078	-2407.40
0.9791,0.0209	-2334.36
0.9829,0.0171	-2314.46
0.8643,0.1357	-2414.69
0.9793,0.0207	-2349.80
0.9818,0.0182	-2334.59
0.8924,0.1076	-2386.25
0.9847,0.0153	-2318.35
0.9788,0.0212	-2334.34
0.8593,0.1407	-2418.34
0.9831,0.0169	-2330.68
0.9854,0.0146	-2335.14
0.8762,0.1238	-2409.03
0.9836,0.0164	-2318.45
0.9756,0.0244	-2326.86
0.8708,0.1292	-2407.12
0.9884,0.0116	-2327.05
0.9896,0.0104	-2318.16
0.8486,0.1514	-2425.31
0.9842,0.0158	-2326.66
0.9774,0.0226	-2315.45
0.8827,0.1173	-2419.22
0.9856,0.0144	-2322.51
0.9920,0.0080	-2323.11
0.8479,0.1521	-2404.69
0.9849,0.0151	-2330.87
0.9727,0.0273	-2341.40
0.8876,0.1124	-2390.69
0.9812,0.0188	-2322.66
0.9883,0.0117	-2313.73
0.8350,0.1650	-2409.16
0.9864,0.0136	-2322.52
0.9683,0.0317	-2344.69
0.8887,0.1113	-2392.71
0.9827,0.0173	-2318.54
0.9899,0.0101	-2309.00
0.8029,0.1971	-2436.85
0.9889,0.0111	-2313.67
0.9616,0.0384	-2347.84
0.8980,0.1020	-2381.62
0.9838,0.0162	-2322.54
0.9921,0.0079	-2308.63
0.7966,0.2034	-2435.74
0.9873,0.0127	-2322.55
0.9565,0.0435	-2350.98
0.9064,0.0936	-2397.07
0.9869,0.0131	-2309.56
0.9934,0.0066	-2313.47
0.7642,0.2358	-2452.43
0.9867,0.0133	-2318.22
0.9636,0.0364	-2338.05
0.9059,0.0941	-2390.26
0.9878,0.0122	-2318.18
0.9920,0.0080	-2303.82
0.7481,0.2519	-2468.50
0.9881,0.0119	-2313.74
0.9653,0.0347	-2327.98
0.9196,0.0804	-2376.06
0.9862,0.0138	-2309.71
0.9908,0.0092	-2322.87
0.7746,0.2254	-2452.13
0.9908,0.0092	-2318.20
0.9655,0.0345	-2334.62
0.9406,0.0594	-2354.47
0.9849,0.0151	-2335.04
0.9932,0.0068	-2313.46
0.7830,0.2170	-2440.47
0.9908,0.0092	-2308.84
0.9525,0.0475	-2339.05
0.9519,0.0481	-2365.98
0.9887,0.0113	-2336.06
0.9940,0.0060	-2303.29
0.7840,0.2160	-2442.99
0.9890,0.0110	-2309.16
0.9424,0.0576	-2354.36
0.9532,0.0468	-2351.02
0.9904,0.0096	-2318.18
0.9950,0.0050	-2308.30
0.7796,0.2204	-2435.63
0.9864,0.0136	-2309.66
0.9501,0.0499	-2357.01
0.9522,0.0478	-2360.02
0.9894,0.0106	-2313.62
0.9956,0.0044	-2313.67
0.7763,0.2237	-2460.80
0.9861,0.0139	-2309.74
0.9508,0.0492	-2324.44
0.9550,0.0450	-2350.99
0.9876,0.0124	-2318.18
0.9957,0.0043	-2308.25
0.7986,0.2014	-2442.53
0.9857,0.0143	-2314.04
0.9607,0.0393	-2344.64
0.9480,0.0520	-2339.60
0.9863,0.0137	-2318.24
0.9957,0.0043	-2302.80
0.7945,0.2055	-2449.38
0.9880,0.0120	-2322.58
0.9684,0.0316	-2361.79
0.9466,0.0534	-2359.91
0.9862,0.0138	-2305.43
0.9954,0.0046	-2308.27
0.7939,0.2061	-2426.45
0.9885,0.0115	-2313.71
0.9749,0.0251	-2334.23
0.9370,0.0630	-2368.22
0.9860,0.0140	-2314.00
0.9964,0.0036	-2302.63
0.7964,0.2036	-2427.56
0.9903,0.0097	-2313.55
0.9788,0.0212	-2319.01
0.9366,0.0634	-2370.91
0.9880,0.0120	-2309.35
0.9975,0.0025	-2320.26
0.8364,0.1636	-2413.93
0.9905,0.0095	-2327.48
0.9716,0.0284	-2341.35
0.9220,0.0780	-2363.67
0.9901,0.0099	-2308.96
0.9981,0.0019	-2308.42
0.8108,0.1892	-2435.17
0.9894,0.0106	-2318.16
0.9721,0.0279	-2337.82
0.9183,0.0817	-2383.35
0.9926,0.0074	-2313.46
0.9982,0.0018	-2302.11
0.8390,0.1610	-2418.71
0.9923,0.0077	-2308.60
0.9742,0.0258	-2334.23
0.9140,0.0860	-2371.51
0.9913,0.0087	-2318.23
0.9981,0.0019	-2314.65
0.8445,0.1555	-2415.13
0.9925,0.0075	-2313.46
0.9772,0.0228	-2322.99
0.9297,0.0703	-2355.38
0.9906,0.0094	-2318.19
0.9975,0.0025	-2308.30
0.8477,0.1523	-2411.57
0.9909,0.0091	-2308.82
0.9749,0.0251	-2341.55
0.9308,0.0692	-2357.87
0.9898,0.0102	-2322.74
0.9974,0.0026	-2302.35
0.8492,0.1508	-2418.41
0.9881,0.0119	-2313.75
0.9786,0.0214	-2330.51
0.9396,0.0604	-2362.77
0.9895,0.0105	-2331.81
0.9973,0.0027	-2308.28
0.8642,0.1358	-2399.89
0.9897,0.0103	-2313.60
0.9745,0.0255	-2337.88
0.9406,0.0594	-2357.23
0.9888,0.0112	-2313.68
0.9969,0.0031	-2302.48
0.8989,0.1011	-2392.49
0.9866,0.0134	-2318.23
0.9643,0.0357	-2367.67
0.9469,0.0531	-2359.91
0.9889,0.0111	-2313.67
0.9957,0.0043	-2302.81
0.9140,0.0860	-2402.24
0.9838,0.0162	-2318.43
0.9639,0.0361	-2341.32
0.9485,0.0515	-2362.84
0.9910,0.0090	-2322.91
0.9950,0.0050	-2334.74
0.9037,0.0963	-2388.02
0.9847,0.0153	-2335.01
0.9610,0.0390	-2341.43
0.9445,0.0555	-2357.08
0.9919,0.0081	-2313.47
0.9948,0.0052	-2303.06
0.8952,0.1048	-2381.81
0.9842,0.0158	-2318.39
0.9593,0.0407	-2351.00
0.9433,0.0567	-2359.93
0.9925,0.0075	-2318.35
0.9961,0.0039	-2308.24
0.8901,0.1099	-2390.57
0.9853,0.0147	-2318.31
0.9604,0.0396	-2347.84
0.9472,0.0528	-2359.91
0.9923,0.0077	-2308.61
0.9960,0.0040	-2308.24
0.8937,0.1063	-2401.08
0.9883,0.0117	-2313.72
0.9644,0.0356	-2364.39
0.9546,0.0454	-2326.63
0.9927,0.0073	-2303.65
0.9961,0.0039	-2302.71
0.9040,0.0960	-2374.56
0.9897,0.0103	-2318.16
0.9744,0.0256	-2337.87
0.9592,0.0408	-2360.47
0.9913,0.0087	-2318.23
0.9961,0.0039	-2308.24
0.8852,0.1148	-2386.73
0.9902,0.0098	-2313.56
0.9703,0.0297	-2334.33
0.9508,0.0492	-2362.94
0.9926,0.0074	-2313.46
0.9957,0.0043	-2319.15
0.8867,0.1133	-2388.68
0.9866,0.0134	-2318.23
0.9688,0.0312	-2334.40
0.9505,0.0495	-2362.92
0.9949,0.0051	-2303.04
0.9939,0.0061	-2308.40
0.8824,0.1176	-2407.10
0.9834,0.0166	-2314.39
0.9678,0.0322	-2337.86
0.9487,0.0513	-2359.93
0.9954,0.0046	-2302.90
0.9952,0.0048	-2308.28
0.8939,0.1061	-2413.88
0.9854,0.0146	-2318.30
0.9725,0.0275	-2337.82
0.9434,0.0566	-2340.23
0.9954,0.0046	-2308.27
0.9946,0.0054	-2308.32
0.8863,0.1137	-2409.24
0.9865,0.0135	-2313.93
0.9741,0.0259	-2330.61
0.9378,0.0622	-2370.94
0.9943,0.0057	-2303.19
0.9951,0.0049	-2302.97
0.8833,0.1167	-2397.00
0.9878,0.0122	-2313.78
0.9706,0.0294	-2334.31
0.9524,0.0476	-2339.05
0.9955,0.0045	-2308.26
0.9952,0.0048	-2313.61
0.8933,0.1067	-2371.32
0.9878,0.0122	-2313.79
0.9789,0.0211	-2322.83
0.9545,0.0455	-2341.86
0.9953,0.0047	-2308.27
0.9957,0.0043	-2302.81
0.8744,0.1256	-2393.49
0.9856,0.0144	-2339.42
0.9813,0.0187	-2318.69
0.9405,0.0595	-2357.24
0.9937,0.0063	-2323.62
0.9954,0.0046	-2308.27
0.8665,0.1335	-2410.96
0.9884,0.0116	-2322.61
0.9774,0.0226	-2315.44
0.9315,0.0685	-2370.87
0.9941,0.0059	-2308.38
0.9943,0.0057	-2313.51
0.8655,0.1345	-2416.56
0.9884,0.0116	-2313.72
0.9795,0.0205	-2330.52
0.9423,0.0577	-2351.58
0.9951,0.0049	-2308.29
0.9947,0.0053	-2313.55
0.8805,0.1195	-2405.08
0.9892,0.0108	-2313.64
0.9781,0.0219	-2326.71
0.9460,0.0540	-2354.19
0.9962,0.0038	-2313.81
0.9957,0.0043	-2308.25
0.8998,0.1002	-2379.32
0.9890,0.0110	-2318.16
0.9776,0.0224	-2326.73
0.9443,0.0557	-2385.40
0.9969,0.0031	-2302.48
0.9959,0.0041	-2302.75
0.9125,0.0875	-2399.75
0.9889,0.0111	-2327.14
0.9735,0.0265	-2334.24
0.9574,0.0426	-2357.21
0.9967,0.0033	-2302.52
0.9966,0.0034	-2308.24
0.9135,0.0865	-2395.12
0.9879,0.0121	-2313.77
0.9756,0.0244	-2337.93
0.9593,0.0407	-2357.32
0.9961,0.0039	-2313.77
0.9969,0.0031	-2308.25
0.9157,0.0843	-2378.56
0.9902,0.0098	-2313.56
0.9785,0.0215	-2338.14
0.9695,0.0305	-2320.53
0.9969,0.0031	-2302.49
0.9964,0.0036	-2313.87
0.9145,0.0855	-2399.92
0.9908,0.0092	-2308.85
0.9730,0.0270	-2341.42
0.9765,0.0235	-2330.52
0.9967,0.0033	-2308.24
0.9966,0.0034	-2308.24
0.9062,0.0938	-2394.80
0.9875,0.0125	-2309.44
0.9715,0.0285	-2341.34
0.9742,0.0258	-2334.23
0.9966,0.0034	-2308.24
0.9969,0.0031	-2302.47
0.8874,0.1126	-2403.09
0.9896,0.0104	-2318.16
0.9700,0.0300	-2351.72
0.9795,0.0205	-2345.97
0.9971,0.0029	-2308.26
0.9966,0.0034	-2308.24
0.8672,0.1328	-2410.95
0.9894,0.0106	-2327.23
0.9652,0.0348	-2334.64
0.9789,0.0211	-2326.67
0.9959,0.0041	-2308.25
0.9966,0.0034	-2308.24
0.8854,0.1146	-2411.25
0.9895,0.0105	-2309.06
0.9677,0.0323	-2327.66
0.9828,0.0172	-2314.48
0.9957,0.0043	-2308.25
0.9970,0.0030	-2308.25
0.8824,0.1176	-2405.09
0.9885,0.0115	-2313.71
0.9564,0.0436	-2347.89
0.9802,0.0198	-2322.73
0.9948,0.0052	-2303.06
0.9971,0.0029	-2302.41
0.8923,0.1077	-2390.49
0.9881,0.0119	-2313.74
0.9545,0.0455	-2351.00
0.9849,0.0151	-2309.97
0.9939,0.0061	-2308.39
0.9971,0.0029	-2302.42
0.9108,0.0892	-2390.33
0.9841,0.0159	-2326.65
0.9563,0.0437	-2347.89
0.9853,0.0147	-2314.10
0.9945,0.0055	-2308.34
0.9965,0.0035	-2313.90
0.9071,0.0929	-2383.43
0.9881,0.0119	-2331.43
0.9621,0.0379	-2357.55
0.9873,0.0127	-2309.49
0.9944,0.0056	-2308.34
0.9963,0.0037	-2302.64
0.8842,0.1158	-2396.97
0.9866,0.0134	-2322.52
0.9622,0.0378	-2357.56
0.9874,0.0126	-2318.19
0.9954,0.0046	-2302.88
0.9958,0.0042	-2319.19
0.8565,0.1435	-2395.10
0.9880,0.0120	-2327.00
0.9635,0.0365	-2347.88
0.9815,0.0185	-2326.61
0.9962,0.0038	-2308.24
0.9968,0.0032	-2308.25
0.8765,0.1235	-2424.70
0.9886,0.0114	-2313.69
0.9687,0.0313	-2334.40
0.9773,0.0227	-2334.28
0.9968,0.0032	-2302.52
0.9971,0.0029	-2302.43
0.8546,0.1454	-2397.08
0.9875,0.0125	-2309.45
0.9725,0.0275	-2341.39
0.9812,0.0188	-2330.57
0.9974,0.0026	-2326.11
0.9962,0.0038	-2313.80
0.8468,0.1532	-2408.20
0.9851,0.0149	-2318.32
0.9722,0.0278	-2334.26
0.9781,0.0219	-2334.31
0.9979,0.0021	-2302.21
0.9960,0.0040	-2308.24
0.8591,0.1409	-2407.49
0.9837,0.0163	-2338.93
0.9734,0.0266	-2327.04
0.9761,0.0239	-2349.08
0.9981,0.0019	-2302.14
0.9960,0.0040	-2313.75
0.8791,0.1209	-2393.18
0.9855,0.0145	-2339.38
0.9641,0.0359	-2344.60
0.9813,0.0187	-2334.53
0.9986,0.0014	-2308.58
0.9956,0.0044	-2308.25
0.8950,0.1050	-2407.54
0.9804,0.0196	-2318.80
0.9649,0.0351	-2337.98
0.9833,0.0167	-2310.33
0.9981,0.0019	-2308.42
0.9966,0.0034	-2319.60
0.9036,0.0964	-2385.78
0.9831,0.0169	-2322.56
0.9636,0.0364	-2351.15
0.9819,0.0181	-2346.57
0.9985,0.0015	-2302.04
0.9959,0.0041	-2302.75
0.8923,0.1077	-2401.06
0.9821,0.0179	-2326.61
0.9610,0.0390	-2338.23
0.9808,0.0192	-2338.42
0.9983,0.0017	-2302.08
0.9962,0.0038	-2308.24
0.8946,0.1054	-2375.44
0.9823,0.0177	-2322.60
0.9645,0.0355	-2357.82
0.9817,0.0183	-2322.63
0.9985,0.0015	-2308.54
0.9961,0.0039	-2308.24
0.8916,0.1084	-2394.73
0.9783,0.0217	-2338.12
0.9661,0.0339	-2341.27
0.9805,0.0195	-2322.70
0.9985,0.0015	-2302.04
0.9964,0.0036	-2308.24
0.8938,0.1062	-2418.13
0.9737,0.0263	-2330.63
0.9706,0.0294	-2334.32
0.9806,0.0194	-2322.70
0.9984,0.0016	-2302.06
0.9964,0.0036	-2313.85
0.8756,0.1244	-2395.36
0.9737,0.0263	-2337.85
0.9677,0.0323	-2341.26
0.9810,0.0190	-2334.51
0.9981,0.0019	-2308.42
0.9968,0.0032	-2302.51
0.8744,0.1256	-2409.02
0.9726,0.0274	-2327.12
0.9641,0.0359	-2344.60
0.9787,0.0213	-2322.85
0.9983,0.0017	-2302.08
0.9966,0.0034	-2308.24
0.8569,0.1431	-2402.22
0.9768,0.0232	-2341.74
0.9739,0.0261	-2330.62
0.9779,0.0221	-2319.14
0.9978,0.0022	-2302.22
0.9961,0.0039	-2308.24
0.8417,0.1583	-2415.27
0.9742,0.0258	-2326.97
0.9736,0.0264	-2316.20
0.9772,0.0228	-2345.54
0.9979,0.0021	-2302.20
0.9965,0.0035	-2302.60
0.8392,0.1608	-2402.18
0.9761,0.0239	-2341.66
0.9706,0.0294	-2334.31
0.9774,0.0226	-2334.28
0.9979,0.0021	-2308.36
0.9971,0.0029	-2308.26
0.8408,0.1592	-2413.65
0.9765,0.0235	-2349.16
0.9555,0.0445	-2357.12
0.9799,0.0201	-2330.53
0.9974,0.0026	-2308.29
0.9955,0.0045	-2313.65
0.8633,0.1367	-2409.16
0.9790,0.0210	-2338.19
0.9525,0.0475	-2336.04
0.9844,0.0156	-2347.38
0.9966,0.0034	-2302.55
0.9954,0.0046	-2313.65
0.8505,0.1495	-2397.52
0.9784,0.0216	-2319.07
0.9470,0.0530	-2359.91
0.9849,0.0151	-2322.51
0.9964,0.0036	-2302.60
0.9952,0.0048	-2308.28
0.8534,0.1466	-2409.54
0.9833,0.0167	-2326.63
0.9515,0.0485	-2357.02
0.9843,0.0157	-2326.66
0.9958,0.0042	-2302.77
0.9936,0.0064	-2313.48
0.8532,0.1468	-2435.95
0.9807,0.0193	-2318.77
0.9521,0.0479	-2345.07
0.9851,0.0149	-2322.51
0.9954,0.0046	-2308.27
0.9927,0.0073	-2303.63
0.8498,0.1502	-2418.40
0.9851,0.0149	-2314.13
0.9430,0.0570	-2362.75
0.9891,0.0109	-2304.63
0.9951,0.0049	-2313.60
0.9930,0.0070	-2318.42
0.8572,0.1428	-2414.75
0.9890,0.0110	-2313.65
0.9245,0.0755	-2363.48
0.9875,0.0125	-2322.55
0.9942,0.0058	-2303.22
0.9921,0.0079	-2303.80
0.8763,0.1237	-2412.94
0.9889,0.0111	-2318.16
0.9345,0.0655	-2378.85
0.9862,0.0138	-2318.24
0.9943,0.0057	-2308.35
0.9934,0.0066	-2323.49
0.8901,0.1099	-2371.75
0.9871,0.0129	-2309.52
0.9322,0.0678	-2363.00
0.9824,0.0176	-2318.56
0.9931,0.0069	-2308.49
0.9923,0.0077	-2313.46
0.9004,0.0996	-2394.69
0.9880,0.0120	-2313.76
0.9413,0.0587	-2354.43
0.9827,0.0173	-2326.62
0.9947,0.0053	-2303.09
0.9918,0.0082	-2313.47
0.9020,0.0980	-2401.37
0.9871,0.0129	-2318.20
0.9472,0.0528	-2362.80
0.9830,0.0170	-2322.56
0.9939,0.0061	-2308.40
0.9916,0.0084	-2318.25
0.9124,0.0876	-2376.31
0.9882,0.0118	-2309.31
0.9439,0.0561	-2351.45
0.9815,0.0185	-2318.67
0.9947,0.0053	-2308.32
0.9915,0.0085	-2323.00
0.9256,0.0744	-2358.35
0.9864,0.0136	-2322.52
0.9248,0.0752	-2386.04
0.9840,0.0160	-2334.88
0.9953,0.0047	-2318.98
0.9928,0.0072	-2323.31
0.9370,0.0630	-2343.93
0.9834,0.0166	-2326.63
0.9386,0.0614	-2362.79
0.9839,0.0161	-2326.65
0.9965,0.0035	-2308.24
0.9936,0.0064	-2323.57
0.9416,0.0584	-2371.09
0.9814,0.0186	-2318.68
0.9420,0.0580	-2368.32
0.9799,0.0201	-2334.41
0.9954,0.0046	-2302.89
0.9926,0.0074	-2303.67
0.9530,0.0470	-2335.98
0.9812,0.0188	-2330.57
0.9378,0.0622	-2373.66
0.9679,0.0321	-2348.08
0.9947,0.0053	-2308.31
0.9926,0.0074	-2308.56
0.9573,0.0427	-2363.42
0.9832,0.0168	-2314.41
0.9341,0.0659	-2370.88
0.9698,0.0302	-2317.01
0.9944,0.0056	-2303.16
0.9929,0.0071	-2318.40
0.9525,0.0475	-2339.04
0.9832,0.0168	-2330.70
0.9293,0.0707	-2386.34
0.9704,0.0296	-2351.77
0.9943,0.0057	-2308.36
0.9933,0.0067	-2328.45
0.9384,0.0616	-2381.86
0.9834,0.0166	-2322.55
0.9369,0.0631	-2376.32
0.9754,0.0246	-2359.99
0.9949,0.0051	-2308.30
0.9924,0.0076	-2303.72
0.9566,0.0434	-2357.16
0.9837,0.0163	-2322.54
0.9412,0.0588	-2348.88
0.9725,0.0275	-2344.95
0.9955,0.0045	-2319.06
0.9926,0.0074	-2313.46
0.9631,0.0369	-2354.39
0.9828,0.0172	-2326.62
0.9397,0.0603	-2371.01
0.9699,0.0301	-2337.82
0.9949,0.0051	-2308.30
0.9907,0.0093	-2304.17
0.9660,0.0340	-2331.23
0.9841,0.0159	-2339.04
0.9417,0.0583	-2368.31
0.9722,0.0278	-2327.16
0.9962,0.0038	-2302.68
0.9922,0.0078	-2318.30
0.9701,0.0299	-2341.30
0.9805,0.0195	-2330.54
0.9493,0.0507	-2354.08
0.9698,0.0302	-2337.82
0.9963,0.0037	-2313.82
0.9935,0.0065	-2308.45
0.9650,0.0350	-2351.24
0.9785,0.0215	-2322.87
0.9488,0.0512	-2359.93
0.9583,0.0417	-2354.12
0.9959,0.0041	-2302.76
0.9946,0.0054	-2308.33
0.9697,0.0303	-2330.88
0.9802,0.0198	-2326.63
0.9474,0.0526	-2345.46
0.9653,0.0347	-2344.61
0.9963,0.0037	-2302.64
0.9937,0.0063	-2303.35
0.9736,0.0264	-2330.63
0.9838,0.0162	-2318.43
0.9451,0.0549	-2357.07
0.9648,0.0352	-2347.92
0.9960,0.0040	-2319.29
0.9931,0.0069	-2308.49
0.9749,0.0251	-2337.89
0.9825,0.0175	-2322.59
0.9442,0.0558	-2371.24
0.9720,0.0280	-2341.36
0.9960,0.0040	-2302.73
0.9920,0.0080	-2308.65
0.9694,0.0306	-2344.73
0.9819,0.0181	-2314.63
0.9464,0.0536	-2348.42
0.9749,0.0251	-2315.94
0.9963,0.0037	-2302.64
0.9930,0.0070	-2323.38
0.9718,0.0282	-2344.90
0.9801,0.0199	-2330.53
0.9376,0.0624	-2351.97
0.9686,0.0314	-2324.13
0.9964,0.0036	-2319.50
0.9925,0.0075	-2313.46
0.9701,0.0299	-2348.25
0.9758,0.0242	-2360.11
0.9368,0.0632	-2362.83
0.9706,0.0294	-2327.32
0.9964,0.0036	-2302.61
0.9926,0.0074	-2313.46
0.9693,0.0307	-2334.37
0.9766,0.0234	-2330.52
0.9395,0.0605	-2357.28
0.9699,0.0301	-2341.29
0.9966,0.0034	-2308.24
0.9936,0.0064	-2313.48
0.9701,0.0299	-2330.85
0.9772,0.0228	-2323.00
0.9437,0.0563	-2351.47
0.9686,0.0314	-2320.70
0.9964,0.0036	-2313.87
0.9947,0.0053	-2308.31
0.9747,0.0253	-2334.23
0.9786,0.0214	-2326.68
0.9417,0.0583	-2359.97
0.9725,0.0275	-2334.26
0.9968,0.0032	-2319.74
0.9950,0.0050	-2308.29
0.9679,0.0321	-2331.05
0.9791,0.0209	-2334.36
0.9293,0.0707	-2388.92
0.9763,0.0237	-2345.41
0.9962,0.0038	-2302.66
0.9951,0.0049	-2308.29
0.9646,0.0354	-2347.91
0.9805,0.0195	-2334.46
0.9271,0.0729	-2370.92
0.9699,0.0301	-2327.40
0.9953,0.0047	-2308.27
0.9945,0.0055	-2308.34
0.9612,0.0388	-2351.05
0.9845,0.0155	-2322.52
0.9283,0.0717	-2358.10
0.9672,0.0328	-2334.50
0.9954,0.0046	-2313.65
0.9953,0.0047	-2308.27
0.9642,0.0358	-2341.31
0.9801,0.0199	-2326.63
0.9332,0.0668	-2362.96
0.9657,0.0343	-2337.94
0.9961,0.0039	-2313.78
0.9959,0.0041	-2308.24
0.9657,0.0343	-2344.61
0.9786,0.0214	-2319.04
0.9276,0.0724	-2398.96
0.9581,0.0419	-2329.08
0.9956,0.0044	-2324.51
0.9954,0.0046	-2302.90
0.9734,0.0266	-2345.04
0.9790,0.0210	-2330.51
0.9306,0.0694	-2355.30
0.9552,0.0448	-2363.23
0.9963,0.0037	-2308.24
0.9963,0.0037	-2313.83
0.9726,0.0274	-2344.96
0.9767,0.0233	-2337.99
0.9107,0.0893	-2374.07
0.9485,0.0515	-2365.75
0.9959,0.0041	-2302.75
0.9968,0.0032	-2308.25
0.9744,0.0256	-2330.59
0.9776,0.0224	-2334.28
0.9301,0.0699	-2360.53
0.9442,0.0558	-2365.58
0.9959,0.0041	-2319.23
0.9968,0.0032	-2302.49
0.9782,0.0218	-2334.31
0.9784,0.0216	-2345.76
0.9306,0.0694	-2376.06
0.9435,0.0565	-2354.30
0.9959,0.0041	-2302.76
0.9964,0.0036	-2313.85
0.9753,0.0247	-2330.56
0.9742,0.0258	-2326.97
0.9238,0.0762	-2398.46
0.9252,0.0748	-2370.97
0.9959,0.0041	-2308.25
0.9963,0.0037	-2308.24
0.9706,0.0294	-2323.82
0.9582,0.0418	-2335.33
0.9143,0.0857	-2364.39
0.9291,0.0709	-2376.03
0.9956,0.0044	-2308.26
0.9963,0.0037	-2302.65
0.9688,0.0312	-2327.53
0.9546,0.0454	-2347.95
0.9209,0.0791	-2380.95
0.9411,0.0589	-2379.38
0.9953,0.0047	-2302.93
0.9966,0.0034	-2302.56
0.9736,0.0264	-2323.42
0.9650,0.0350	-2331.34
0.9356,0.0644	-2352.16
0.9270,0.0730	-2353.13
0.9967,0.0033	-2302.52
0.9949,0.0051	-2318.83
0.9748,0.0252	-2345.20
0.9710,0.0290	-2344.83
0.9367,0.0633	-2370.92
0.9193,0.0807	-2373.64
0.9965,0.0035	-2302.60
0.9942,0.0058	-2308.37
0.9680,0.0320	-2337.86
0.9705,0.0295	-2330.83
0.9396,0.0604	-2371.00
0.9093,0.0907	-2378.77
0.9966,0.0034	-2302.56
0.9923,0.0077	-2313.46
0.9678,0.0322	-2331.05
0.9592,0.0408	-2347.84
0.9412,0.0588	-2365.52
0.9201,0.0799	-2366.27
0.9957,0.0043	-2302.81
0.9933,0.0067	-2313.47
0.9703,0.0297	-2334.33
0.9570,0.0430	-2350.98
0.9316,0.0684	-2370.87
0.9313,0.0687	-2363.05
0.9961,0.0039	-2308.24
0.9939,0.0061	-2313.49
0.9626,0.0374	-2341.36
0.9536,0.0464	-2338.92
0.9251,0.0749	-2365.94
0.9444,0.0556	-2351.43
0.9962,0.0038	-2302.67
0.9947,0.0053	-2313.55
0.9555,0.0445	-2350.98
0.9620,0.0380	-2351.08
0.9308,0.0692	-2373.47
0.9482,0.0518	-2354.11
0.9950,0.0050	-2308.29
0.9963,0.0037	-2308.24
0.9535,0.0465	-2354.03
0.9612,0.0388	-2347.84
0.9221,0.0779	-2376.02
0.9574,0.0426	-2341.64
0.9949,0.0051	-2313.57
0.9957,0.0043	-2308.25
0.9494,0.0506	-2359.94
0.9643,0.0357	-2351.20
0.9087,0.0913	-2381.10
0.9628,0.0372	-2357.62
0.9932,0.0068	-2303.49
0.9946,0.0054	-2303.12
0.9492,0.0508	-2357.01
0.9598,0.0402	-2325.63
0.9155,0.0845	-2378.56
0.9689,0.0311	-2334.40
0.9937,0.0063	-2323.61
0.9936,0.0064	-2303.39
0.9509,0.0491	-2351.09
0.9552,0.0448	-2350.99
0.9157,0.0843	-2388.10
0.9588,0.0412	-2322.66
0.9935,0.0065	-2318.50
0.9932,0.0068	-2303.51
0.9569,0.0431	-2354.08
0.9586,0.0414	-2338.42
0.9156,0.0844	-2378.56
0.9620,0.0380	-2370.46
0.9928,0.0072	-2313.46
0.9948,0.0052	-2313.56
0.9635,0.0365	-2321.68
0.9620,0.0380	-2347.85
0.9291,0.0709	-2373.46
0.9595,0.0405	-2357.34
0.9933,0.0067	-2303.46
0.9943,0.0057	-2308.35
0.9573,0.0427	-2350.98
0.9671,0.0329	-2337.88
0.9139,0.0861	-2388.05
0.9609,0.0391	-2338.23
0.9926,0.0074	-2303.67
0.9945,0.0055	-2303.13
0.9391,0.0609	-2362.78
0.9685,0.0315	-2348.12
0.9097,0.0903	-2378.76
0.9658,0.0342	-2327.91
0.9924,0.0076	-2308.59
0.9943,0.0057	-2303.18
0.9503,0.0497	-2368.81
0.9717,0.0283	-2337.81
0.9106,0.0894	-2394.97
0.9649,0.0351	-2331.35
0.9907,0.0093	-2332.20
0.9945,0.0055	-2308.34
0.9582,0.0418	-2347.85
0.9603,0.0397	-2347.84
0.9112,0.0888	-2376.36
0.9751,0.0249	-2337.90
0.9893,0.0107	-2322.68
0.9940,0.0060	-2318.60
0.9573,0.0427	-2335.43
0.9589,0.0411	-2344.69
0.8976,0.1024	-2407.70
0.9753,0.0247	-2330.56
0.9852,0.0148	-2322.51
0.9950,0.0050	-2302.99
0.9583,0.0417	-2347.85
0.9396,0.0604	-2351.79
0.9053,0.0947	-2381.23
0.9789,0.0211	-2338.19
0.9876,0.0124	-2322.56
0.9961,0.0039	-2313.78
0.9674,0.0326	-2344.65
0.9431,0.0569	-2365.55
0.9239,0.0761	-2381.00
0.9788,0.0212	-2326.67
0.9904,0.0096	-2313.54
0.9973,0.0027	-2314.17
0.9677,0.0323	-2334.46
0.9345,0.0655	-2362.90
0.9276,0.0724	-2360.71
0.9786,0.0214	-2341.97
0.9931,0.0069	-2313.46
0.9965,0.0035	-2308.24
0.9676,0.0324	-2351.45
0.9421,0.0579	-2365.54
0.9229,0.0771	-2383.46
0.9711,0.0289	-2323.76
0.9936,0.0064	-2318.53
0.9968,0.0032	-2314.00
0.9565,0.0435	-2350.98
0.9481,0.0519	-2351.20
0.9258,0.0742	-2370.95
0.9748,0.0252	-2334.23
0.9949,0.0051	-2324.13
0.9966,0.0034	-2308.24
0.9531,0.0469	-2354.03
0.9500,0.0500	-2348.18
0.9121,0.0879	-2385.68
0.9693,0.0307	-2341.28
0.9956,0.0044	-2302.84
0.9970,0.0030	-2302.44
0.9594,0.0406	-2328.87
0.9501,0.0499	-2348.17
0.9370,0.0630	-2354.73
0.9730,0.0270	-2330.66
0.9964,0.0036	-2308.24
0.9971,0.0029	-2302.42
0.9612,0.0388	-2347.84
0.9483,0.0517	-2362.83
0.9427,0.0573	-2362.74
0.9714,0.0286	-2351.91
0.9968,0.0032	-2302.49
0.9971,0.0029	-2308.26
0.9675,0.0325	-2331.09
0.9561,0.0439	-2372.54
0.9428,0.0572	-2376.75
0.9735,0.0265	-2348.65
0.9962,0.0038	-2313.82
0.9974,0.0026	-2302.33
0.9562,0.0438	-2347.90
0.9459,0.0541	-2339.88
0.9393,0.0607	-2362.77
0.9688,0.0312	-2348.14
0.9960,0.0040	-2308.24
0.9972,0.0028	-2308.27
0.9508,0.0492	-2339.25
0.9482,0.0518	-2342.48
0.9375,0.0625	-2373.65
0.9689,0.0311	-2355.03
0.9962,0.0038	-2313.80
0.9978,0.0022	-2302.24
0.9480,0.0520	-2359.92
0.9457,0.0543	-2362.77
0.9228,0.0772	-2363.60
0.9659,0.0341	-2361.34
0.9965,0.0035	-2308.24
0.9978,0.0022	-2302.22
0.9401,0.0599	-2354.50
0.9455,0.0545	-2345.64
0.9338,0.0662	-2370.87
0.9757,0.0243	-2323.16
0.9971,0.0029	-2308.26
0.9980,0.0020	-2302.17
0.9327,0.0673	-2370.87
0.9414,0.0586	-2365.53
0.9279,0.0721	-2393.89
0.9780,0.0220	-2326.71
0.9969,0.0031	-2308.25
0.9981,0.0019	-2314.70
0.9420,0.0580	-2365.53
0.9438,0.0562	-2357.11
0.9109,0.0891	-2381.03
0.9774,0.0226	-2315.44
0.9966,0.0034	-2308.24
0.9981,0.0019	-2302.14
0.9416,0.0584	-2354.40
0.9429,0.0571	-2343.11
0.9140,0.0860	-2376.24
0.9797,0.0203	-2334.40
0.9965,0.0035	-2308.24
0.9979,0.0021	-2302.21
0.9375,0.0625	-2354.69
0.9293,0.0707	-2358.00
0.9160,0.0840	-2354.66
0.9788,0.0212	-2326.68
0.9959,0.0041	-2308.24
0.9976,0.0024	-2302.28
0.9358,0.0642	-2370.90
0.9323,0.0677	-2378.73
0.9225,0.0775	-2380.97
0.9770,0.0230	-2315.52
0.9948,0.0052	-2308.31
0.9974,0.0026	-2308.29
0.9470,0.0530	-2362.80
0.9448,0.0552	-2342.88
0.9156,0.0844	-2378.56
0.9697,0.0303	-2334.36
0.9931,0.0069	-2313.46
0.9977,0.0023	-2302.25
0.9442,0.0558	-2340.12
0.9520,0.0480	-2363.00
0.8996,0.1004	-2388.10
0.9701,0.0299	-2334.34
0.9931,0.0069	-2303.52
0.9980,0.0020	-2302.18
0.9611,0.0389	-2351.05
0.9476,0.0524	-2345.44
0.9102,0.0898	-2390.31
0.9801,0.0199	-2330.53
0.9942,0.0058	-2313.51
0.9978,0.0022	-2308.35
0.9524,0.0476	-2348.04
0.9434,0.0566	-2368.37
0.8950,0.1050	-2375.39
0.9842,0.0158	-2314.26
0.9948,0.0052	-2313.56
0.9978,0.0022	-2320.53
0.9423,0.0577	-2354.37
0.9350,0.0650	-2365.55
0.8952,0.1048	-2403.26
0.9848,0.0152	-2322.51
0.9954,0.0046	-2302.89
0.9974,0.0026	-2308.28
0.9431,0.0569	-2365.55
0.9371,0.0629	-2368.22
0.8828,0.1172	-2386.92
0.9859,0.0141	-2314.01
0.9946,0.0054	-2318.76
0.9967,0.0033	-2308.24
0.9463,0.0537	-2374.26
0.9475,0.0525	-2342.56
0.8678,0.1322	-2416.59
0.9847,0.0153	-2322.52
0.9951,0.0049	-2308.28
0.9972,0.0028	-2308.27
0.9369,0.0631	-2376.31
0.9403,0.0597	-2382.06
0.8598,0.1402	-2411.09
0.9841,0.0159	-2314.27
0.9952,0.0048	-2302.96
0.9980,0.0020	-2302.17
0.9244,0.0756	-2363.48
0.9467,0.0533	-2359.91
0.8511,0.1489	-2432.32
0.9849,0.0151	-2318.34
0.9950,0.0050	-2308.29
0.9978,0.0022	-2302.23
0.9300,0.0700	-2381.22
0.9474,0.0526	-2348.35
0.8636,0.1364	-2416.54
0.9857,0.0143	-2314.04
0.9941,0.0059	-2303.26
0.9978,0.0022	-2308.35
0.9374,0.0626	-2368.23
0.9436,0.0564	-2368.38
0.8754,0.1246	-2416.82
0.9866,0.0134	-2326.83
0.9945,0.0055	-2308.34
0.9974,0.0026	-2308.28
0.9361,0.0639	-2378.95
0.9479,0.0521	-2354.12
0.9026,0.0974	-2374.68
0.9888,0.0112	-2327.12
0.9942,0.0058	-2303.23
0.9970,0.0030	-2308.26
0.9183,0.0817	-2378.51
0.9466,0.0534	-2342.66
0.8779,0.1221	-2407.07
0.9871,0.0129	-2313.86
0.9939,0.0061	-2303.29
0.9972,0.0028	-2308.27
0.9172,0.0828	-2380.93
0.9487,0.0513	-2351.18
0.9114,0.0886	-2376.36
0.9820,0.0180	-2314.61
0.9952,0.0048	-2308.28
0.9973,0.0027	-2308.28
0.9165,0.0835	-2371.35
0.9447,0.0553	-2357.08
0.9264,0.0736	-2393.73
0.9828,0.0172	-2318.52
0.9960,0.0040	-2308.24
0.9970,0.0030	-2302.45
0.9302,0.0698	-2370.88
0.9473,0.0527	-2342.58
0.9136,0.0864	-2385.69
0.9832,0.0168	-2330.69
0.9957,0.0043	-2313.69
0.9977,0.0023	-2326.52
0.9337,0.0663	-2362.94
0.9438,0.0562	-2374.03
0.9231,0.0769	-2393.40
0.9798,0.0202	-2326.64
0.9958,0.0042	-2308.25
0.9982,0.0018	-2302.11
0.9223,0.0777	-2378.49
0.9459,0.0541	-2359.91
0.9082,0.0918	-2390.28
0.9804,0.0196	-2318.81
0.9954,0.0046	-2302.88
0.9975,0.0025	-2302.31
0.9082,0.0918	-2390.28
0.9427,0.0573	-2351.54
0.9173,0.0827	-2364.09
0.9792,0.0208	-2322.81
0.9938,0.0062	-2313.49
0.9980,0.0020	-2302.18
0.9071,0.0929	-2374.32
0.9551,0.0449	-2335.69
0.9166,0.0834	-2373.75
0.9802,0.0198	-2318.82
0.9950,0.0050	-2303.01
0.9979,0.0021	-2308.37
0.8988,0.1012	-2394.67
0.9533,0.0467	-2341.96
0.9234,0.0766	-2358.58
0.9846,0.0154	-2314.20
0.9949,0.0051	-2313.58
0.9979,0.0021	-2302.21
0.9011,0.0989	-2390.27
0.9615,0.0385	-2338.19
0.9177,0.0823	-2359.22
0.9845,0.0155	-2326.67
0.9969,0.0031	-2302.46
0.9980,0.0020	-2302.18
0.8919,0.1081	-2394.72
0.9615,0.0385	-2338.19
0.8958,0.1042	-2379.62
0.9877,0.0123	-2313.79
0.9973,0.0027	-2302.37
0.9982,0.0018	-2302.13
0.8845,0.1155	-2417.32
0.9685,0.0315	-2327.57
0.8835,0.1165	-2386.86
0.9839,0.0161	-2322.53
0.9972,0.0028	-2302.40
0.9982,0.0018	-2302.13
0.8701,0.1299	-2422.35
0.9650,0.0350	-2324.71
0.8855,0.1145	-2392.85
0.9850,0.0150	-2326.70
0.9967,0.0033	-2308.24
0.9977,0.0023	-2302.26
0.8708,0.1292	-2401.40
0.9721,0.0279	-2334.27
0.8916,0.1084	-2405.26
0.9846,0.0154	-2326.68
0.9969,0.0031	-2314.02
0.9968,0.0032	-2302.52
0.8648,0.1352	-2429.54
0.9721,0.0279	-2341.37
0.8813,0.1187	-2413.11
0.9868,0.0132	-2309.59
0.9968,0.0032	-2308.24
0.9969,0.0031	-2308.25
0.8576,0.1424	-2423.72
0.9736,0.0264	-2345.06
0.8922,0.1078	-2386.27
0.9863,0.0137	-2322.52
0.9958,0.0042	-2308.25
0.9975,0.0025	-2308.31
0.8673,0.1327	-2409.08
0.9706,0.0294	-2351.79
0.8856,0.1144	-2415.35
0.9831,0.0169	-2330.69
0.9968,0.0032	-2302.50
0.9978,0.0022	-2302.22
0.8785,0.1215	-2395.20
0.9757,0.0243	-2334.24
0.8950,0.1050	-2390.40
0.9843,0.0157	-2322.52
0.9960,0.0040	-2308.24
0.9976,0.0024	-2302.27
0.8889,0.1111	-2396.87
0.9747,0.0253	-2323.27
0.9105,0.0895	-2381.04
0.9837,0.0163	-2326.64
0.9946,0.0054	-2323.99
0.9975,0.0025	-2302.32
0.8851,0.1149	-2398.99
0.9735,0.0265	-2334.24
0.9147,0.0853	-2390.45
0.9807,0.0193	-2314.84
0.9941,0.0059	-2318.64
0.9978,0.0022	-2314.49
0.8677,0.1323	-2392.14
0.9752,0.0248	-2319.55
0.9067,0.0933	-2392.54
0.9764,0.0236	-2337.97
0.9948,0.0052	-2308.31
0.9974,0.0026	-2308.28
0.8614,0.1386	-2403.74
0.9774,0.0226	-2345.58
0.9293,0.0707	-2370.88
0.9791,0.0209	-2334.36
0.9945,0.0055	-2313.53
0.9962,0.0038	-2308.24
0.8427,0.1573	-2405.15
0.9747,0.0253	-2326.93
0.9478,0.0522	-2362.82
0.9732,0.0268	-2348.61
0.9932,0.0068	-2323.42
0.9968,0.0032	-2302.51
0.8377,0.1623	-2418.77
0.9751,0.0249	-2319.56
0.9487,0.0513	-2371.60
0.9600,0.0400	-2351.01
0.9904,0.0096	-2322.82
0.9964,0.0036	-2302.62
0.8736,0.1264	-2405.15
0.9730,0.0270	-2327.08
0.9447,0.0553	-2362.76
0.9592,0.0408	-2347.84
0.9889,0.0111	-2318.16
0.9953,0.0047	-2313.63
0.8589,0.1411	-2414.72
0.9745,0.0255	-2323.30
0.9475,0.0525	-2359.92
0.9588,0.0412	-2347.84
0.9893,0.0107	-2318.16
0.9947,0.0053	-2308.32
0.8568,0.1432	-2429.07
0.9730,0.0270	-2341.41
0.9502,0.0498	-2324.56
0.9660,0.0340	-2324.54
0.9862,0.0138	-2318.25
0.9935,0.0065	-2308.45
0.8609,0.1391	-2389.18
0.9641,0.0359	-2347.89
0.9412,0.0588	-2384.93
0.9646,0.0354	-2347.91
0.9849,0.0151	-2330.87
0.9947,0.0053	-2313.55
0.8685,0.1315	-2410.94
0.9617,0.0383	-2351.07
0.9388,0.0612	-2346.40
0.9623,0.0377	-2338.13
0.9851,0.0149	-2330.89
0.9951,0.0049	-2313.60
0.8751,0.1249	-2405.13
0.9616,0.0384	-2334.96
0.9330,0.0670	-2373.50
0.9630,0.0370	-2341.34
0.9846,0.0154	-2326.68
0.9962,0.0038	-2302.66
0.8779,0.1221	-2401.15
0.9694,0.0306	-2341.28
0.9322,0.0678	-2373.49
0.9635,0.0365	-2344.60
0.9801,0.0199	-2338.32
0.9956,0.0044	-2319.11
0.8965,0.1035	-2392.51
0.9613,0.0387	-2360.69
0.9353,0.0647	-2360.21
0.9601,0.0399	-2335.12
0.9819,0.0181	-2326.61
0.9962,0.0038	-2302.68
0.8872,0.1128	-2396.90
0.9606,0.0394	-2354.23
0.9368,0.0632	-2373.61
0.9529,0.0471	-2360.05
0.9815,0.0185	-2306.74
0.9958,0.0042	-2302.78
0.9122,0.0878	-2390.36
0.9627,0.0373	-2351.11
0.9484,0.0516	-2359.93
0.9548,0.0452	-2326.59
0.9866,0.0134	-2313.93
0.9966,0.0034	-2313.91
0.8911,0.1089	-2388.43
0.9560,0.0440	-2354.06
0.9575,0.0425	-2338.52
0.9571,0.0429	-2326.13
0.9845,0.0155	-2322.52
0.9973,0.0027	-2308.28
0.9253,0.0747	-2348.32
0.9671,0.0329	-2358.17
0.9433,0.0567	-2343.06
0.9584,0.0416	-2341.57
0.9847,0.0153	-2335.01
0.9978,0.0022	-2302.22
0.9253,0.0747	-2393.62
0.9638,0.0362	-2331.47
0.9479,0.0521	-2348.32
0.9526,0.0474	-2354.03
0.9807,0.0193	-2314.84
0.9982,0.0018	-2314.72
0.9191,0.0809	-2388.22
0.9654,0.0346	-2354.60
0.9432,0.0568	-2348.70
0.9456,0.0544	-2354.20
0.9781,0.0219	-2326.71
0.9980,0.0020	-2302.18
0.9371,0.0629	-2365.52
0.9615,0.0385	-2360.71
0.9514,0.0486	-2371.88
0.9455,0.0545	-2357.06
0.9747,0.0253	-2348.83
0.9979,0.0021	-2308.37
0.9340,0.0660	-2370.87
0.9670,0.0330	-2337.89
0.9449,0.0551	-2371.28
0.9507,0.0493	-2362.93
0.9766,0.0234	-2334.25
0.9976,0.0024	-2308.31
0.9229,0.0771	-2398.35
0.9643,0.0357	-2324.82
0.9453,0.0547	-2359.91
0.9464,0.0536	-2348.42
0.9807,0.0193	-2330.55
0.9977,0.0023	-2302.26
0.9425,0.0575	-2362.74
0.9597,0.0403	-2341.50
0.9491,0.0509	-2368.71
0.9516,0.0484	-2357.02
0.9770,0.0230	-2330.52
0.9980,0.0020	-2320.76
0.9462,0.0538	-2371.38
0.9551,0.0449	-2350.99
0.9570,0.0430	-2335.47
0.9468,0.0532	-2348.40
0.9795,0.0205	-2330.52
0.9982,0.0018	-2308.43
0.9487,0.0513	-2377.43
0.9564,0.0436	-2363.33
0.9626,0.0374	-2341.36
0.9545,0.0455	-2350.99
0.9824,0.0176	-2334.65
0.9979,0.0021	-2302.19
0.9479,0.0521	-2339.61
0.9435,0.0565	-2374.01
0.9541,0.0459	-2357.07
0.9528,0.0472	-2363.05
0.9860,0.0140	-2343.78
0.9982,0.0018	-2302.11
0.9473,0.0527	-2348.36
0.9490,0.0510	-2351.16
0.9607,0.0393	-2347.84
0.9637,0.0363	-2334.76
0.9879,0.0121	-2322.58
0.9978,0.0022	-2308.34
0.9370,0.0630	-2368.22
0.9480,0.0520	-2342.50
0.9610,0.0390	-2344.63
0.9715,0.0285	-2327.22
0.9850,0.0150	-2330.89
0.9972,0.0028	-2308.27
0.9401,0.0599	-2354.50
0.9427,0.0573	-2371.15
0.9640,0.0360	-2351.18
0.9695,0.0305	-2351.66
0.9862,0.0138	-2331.05
0.9975,0.0025	-2302.30
0.9497,0.0503	-2339.39
0.9494,0.0506	-2371.67
0.9629,0.0371	-2334.84
0.9757,0.0243	-2330.55
0.9838,0.0162	-2322.54
0.9972,0.0028	-2308.27
0.9484,0.0516	-2362.84
0.9471,0.0529	-2354.14
0.9547,0.0453	-2360.14
0.9735,0.0265	-2341.45
0.9823,0.0177	-2330.63
0.9969,0.0031	-2308.25
0.9458,0.0542	-2357.05
0.9478,0.0522	-2348.32
0.9579,0.0421	-2335.36
0.9741,0.0259	-2319.73
0.9817,0.0183	-2322.63
0.9973,0.0027	-2326.04
0.9414,0.0586	-2362.75
0.9554,0.0446	-2350.98
0.9507,0.0493	-2380.69
0.9760,0.0240	-2337.95
0.9786,0.0214	-2330.51
0.9972,0.0028	-2302.39
0.9527,0.0473	-2354.03
0.9553,0.0447	-2341.80
0.9407,0.0593	-2343.41
0.9731,0.0269	-2355.78
0.9727,0.0273	-2348.55
0.9967,0.0033	-2319.64
0.9573,0.0427	-2354.09
0.9609,0.0391	-2351.04
0.9487,0.0513	-2362.85
0.9738,0.0262	-2334.24
0.9810,0.0190	-2326.62
0.9967,0.0033	-2308.24
0.9539,0.0461	-2344.94
0.9589,0.0411	-2341.54
0.9628,0.0372	-2325.08
0.9807,0.0193	-2322.69
0.9842,0.0158	-2322.52
0.9970,0.0030	-2308.25
0.9641,0.0359	-2351.18
0.9672,0.0328	-2331.11
0.9661,0.0339	-2341.27
0.9760,0.0240	-2356.48
0.9842,0.0158	-2318.40
0.9962,0.0038	-2302.66
0.9676,0.0324	-2334.47
0.9602,0.0398	-2351.02
0.9633,0.0367	-2321.72
0.9712,0.0288	-2341.33
0.9865,0.0135	-2326.81
0.9961,0.0039	-2308.24
0.9687,0.0313	-2330.98
0.9586,0.0414	-2335.28
0.9624,0.0376	-2364.06
0.9684,0.0316	-2334.42
0.9827,0.0173	-2322.58
0.9960,0.0040	-2308.24
0.9719,0.0281	-2327.18
0.9563,0.0437	-2338.63
0.9557,0.0443	-2360.20
0.9745,0.0255	-2337.87
0.9778,0.0222	-2319.15
0.9964,0.0036	-2302.61
0.9670,0.0330	-2344.64
0.9578,0.0422	-2350.98
0.9414,0.0586	-2376.63
0.9771,0.0229	-2341.77
0.9798,0.0202	-2342.17
0.9969,0.0031	-2302.47
0.9681,0.0319	-2327.62
0.9594,0.0406	-2363.65
0.9400,0.0600	-2362.76
0.9691,0.0309	-2344.72
0.9787,0.0213	-2338.16
0.9965,0.0035	-2308.24
0.9550,0.0450	-2350.99
0.9608,0.0392	-2315.85
0.9428,0.0572	-2368.35
0.9696,0.0304	-2348.21
0.9824,0.0176	-2326.61
0.9970,0.0030	-2308.26
0.9555,0.0445	-2347.92
0.9650,0.0350	-2341.29
0.9441,0.0559	-2348.62
0.9690,0.0310	-2334.39
0.9823,0.0177	-2326.61
0.9965,0.0035	-2302.60
0.9537,0.0463	-2354.03
0.9598,0.0402	-2354.18
0.9112,0.0888	-2378.69
0.9577,0.0423	-2338.50
0.9787,0.0213	-2322.85
0.9958,0.0042	-2308.25
0.9559,0.0441	-2332.52
0.9454,0.0546	-2362.76
0.9309,0.0691	-2357.86
0.9550,0.0450	-2360.15
0.9755,0.0245	-2308.45
0.9955,0.0045	-2308.26
0.9595,0.0405	-2338.34
0.9484,0.0516	-2354.10
0.9405,0.0595	-2384.84
0.9419,0.0581	-2357.18
0.9760,0.0240	-2323.13
0.9964,0.0036	-2313.85
0.9557,0.0443	-2350.98
0.9468,0.0532	-2359.91
0.9435,0.0565	-2357.12
0.9435,0.0565	-2374.01
0.9797,0.0203	-2322.77
0.9961,0.0039	-2302.70
0.9679,0.0321	-2348.07
0.9350,0.0650	-2360.22
0.9571,0.0429	-2354.08
0.9299,0.0701	-2368.29
0.9859,0.0141	-2322.51
0.9957,0.0043	-2308.25
0.9649,0.0351	-2337.98
0.9427,0.0573	-2362.74
0.9606,0.0394	-2367.00
0.9376,0.0624	-2387.19
0.9848,0.0152	-2314.17
0.9955,0.0045	-2308.26
0.9609,0.0391	-2338.23
0.9565,0.0435	-2347.89
0.9590,0.0410	-2338.39
0.9398,0.0602	-2379.25
0.9847,0.0153	-2335.00
0.9954,0.0046	-2313.64
0.9583,0.0417	-2338.45
0.9525,0.0475	-2345.04
0.9547,0.0453	-2350.99
0.9434,0.0566	-2359.93
0.9862,0.0138	-2318.25
0.9942,0.0058	-2328.94
0.9605,0.0395	-2344.64
0.9463,0.0537	-2354.17
0.9568,0.0432	-2338.58
0.9362,0.0638	-2368.22
0.9820,0.0180	-2314.61
0.9937,0.0063	-2308.42
0.9650,0.0350	-2341.29
0.9599,0.0401	-2344.66
0.9497,0.0503	-2357.01
0.9341,0.0659	-2384.14
0.9814,0.0186	-2330.58
0.9933,0.0067	-2313.47
0.9619,0.0381	-2344.62
0.9631,0.0369	-2341.34
0.9605,0.0395	-2366.98
0.9158,0.0842	-2369.01
0.9766,0.0234	-2337.98
0.9940,0.0060	-2318.61
0.9676,0.0324	-2344.66
0.9576,0.0424	-2354.10
0.9521,0.0479	-2339.09
0.9007,0.0993	-2392.48
0.9789,0.0211	-2322.84
0.9930,0.0070	-2318.41
0.9621,0.0379	-2338.15
0.9594,0.0406	-2363.65
0.9552,0.0448	-2357.11
0.9031,0.0969	-2390.26
0.9807,0.0193	-2330.55
0.9933,0.0067	-2313.47
0.9671,0.0329	-2337.88
0.9595,0.0405	-2341.51
0.9617,0.0383	-2341.40
0.9126,0.0874	-2378.64
0.9769,0.0231	-2330.52
0.9924,0.0076	-2337.85
0.9663,0.0337	-2334.56
0.9659,0.0341	-2344.62
0.9569,0.0431	-2363.38
0.9126,0.0874	-2373.95
0.9810,0.0190	-2318.73
0.9924,0.0076	-2313.46
0.9688,0.0312	-2337.84
0.9685,0.0315	-2330.99
0.9589,0.0411	-2350.99
0.9206,0.0794	-2373.59
0.9806,0.0194	-2318.78
0.9923,0.0077	-2318.33
0.9756,0.0244	-2323.18
0.9670,0.0330	-2337.89
0.9600,0.0400	-2331.95
0.9221,0.0779	-2358.72
0.9734,0.0266	-2348.64
0.9904,0.0096	-2327.46
0.9780,0.0220	-2345.68
0.9637,0.0363	-2344.60
0.9579,0.0421	-2382.24
0.9227,0.0773	-2363.62
0.9628,0.0372	-2331.59
0.9928,0.0072	-2318.39
0.9786,0.0214	-2319.03
0.9621,0.0379	-2338.14
0.9463,0.0537	-2362.78
0.9266,0.0734	-2365.86
0.9719,0.0281	-2344.90
0.9917,0.0083	-2308.70
0.9767,0.0233	-2337.99
0.9722,0.0278	-2334.26
0.9479,0.0521	-2357.02
0.9128,0.0872	-2373.94
0.9806,0.0194	-2314.85
0.9896,0.0104	-2331.83
0.9755,0.0245	-2341.60
0.9706,0.0294	-2320.32
0.9453,0.0547	-2365.61
0.9131,0.0869	-2385.68
0.9834,0.0166	-2326.63
0.9885,0.0115	-2313.70
0.9740,0.0260	-2348.73
0.9724,0.0276	-2341.38
0.9520,0.0480	-2342.09
0.9243,0.0757	-2368.49
0.9828,0.0172	-2314.48
0.9853,0.0147	-2305.69
0.9687,0.0313	-2341.27
0.9768,0.0232	-2323.04
0.9482,0.0518	-2362.83
0.9244,0.0756	-2373.50
0.9833,0.0167	-2338.85
0.9861,0.0139	-2318.25
0.9637,0.0363	-2331.49
0.9776,0.0224	-2338.06
0.9584,0.0416	-2344.71
0.9323,0.0677	-2376.11
0.9784,0.0216	-2349.58
0.9838,0.0162	-2318.43
0.9680,0.0320	-2341.26
0.9739,0.0261	-2334.23
0.9629,0.0371	-2338.09
0.9400,0.0600	-2379.27
0.9783,0.0217	-2334.32
0.9850,0.0150	-2318.33
0.9676,0.0324	-2341.26
0.9779,0.0221	-2330.51
0.9456,0.0544	-2357.06
0.9467,0.0533	-2357.04
0.9791,0.0209	-2342.05
0.9870,0.0130	-2318.20
0.9714,0.0286	-2320.18
0.9739,0.0261	-2319.75
0.9272,0.0728	-2373.46
0.9453,0.0547	-2348.52
0.9786,0.0214	-2322.86
0.9878,0.0122	-2309.39
0.9809,0.0191	-2318.74
0.9707,0.0293	-2320.31
0.9178,0.0822	-2376.11
0.9421,0.0579	-2351.59
0.9757,0.0243	-2315.78
0.9904,0.0096	-2308.91
0.9766,0.0234	-2334.25
0.9688,0.0312	-2327.52
0.9137,0.0863	-2362.09
0.9434,0.0566	-2359.93
0.9775,0.0225	-2322.97
0.9896,0.0104	-2331.84
0.9697,0.0303	-2351.68
0.9693,0.0307	-2330.92
0.9111,0.0889	-2376.37
0.9433,0.0567	-2354.31
0.9754,0.0246	-2330.55
0.9891,0.0109	-2331.69
0.9639,0.0361	-2334.75
0.9717,0.0283	-2337.81
0.9083,0.0917	-2392.57
0.9455,0.0545	-2365.62
0.9750,0.0250	-2323.24
0.9897,0.0103	-2318.16
0.9673,0.0327	-2341.26
0.9748,0.0252	-2334.23
0.9155,0.0845	-2378.56
0.9404,0.0596	-2362.76
0.9780,0.0220	-2322.92
0.9870,0.0130	-2322.54
0.9656,0.0344	-2347.95
0.9758,0.0242	-2337.94
0.9252,0.0748	-2381.03
0.9393,0.0607	-2349.08
0.9773,0.0227	-2330.51
0.9879,0.0121	-2309.37
0.9515,0.0485	-2354.04
0.9759,0.0241	-2330.54
0.9234,0.0766	-2388.45
0.9475,0.0525	-2371.49
0.9800,0.0200	-2330.53
0.9881,0.0119	-2322.59
0.9622,0.0378	-2351.09
0.9709,0.0291	-2341.32
0.9349,0.0651	-2365.55
0.9429,0.0571	-2365.55
0.9822,0.0178	-2338.65
0.9860,0.0140	-2318.26
0.9674,0.0326	-2341.26
0.9695,0.0305	-2348.20
0.9286,0.0714	-2355.50
0.9452,0.0548	-2345.68
0.9855,0.0145	-2322.51
0.9839,0.0161	-2306.09
0.9624,0.0376	-2334.88
0.9690,0.0310	-2348.16
0.9337,0.0663	-2355.01
0.9518,0.0482	-2339.12
0.9853,0.0147	-2318.31
0.9840,0.0160	-2343.12
0.9614,0.0386	-2354.27
0.9712,0.0288	-2327.26
0.9435,0.0565	-2359.93
0.9500,0.0500	-2351.12
0.9875,0.0125	-2313.81
0.9805,0.0195	-2318.79
0.9559,0.0441	-2363.28
0.9668,0.0332	-2324.41
0.9505,0.0495	-2342.23
0.9460,0.0540	-2351.32
0.9892,0.0108	-2327.20
0.9779,0.0221	-2326.72
0.9573,0.0427	-2335.43
0.9699,0.0301	-2334.34
0.9545,0.0455	-2332.73
0.9545,0.0455	-2357.08
0.9879,0.0121	-2304.98
0.9777,0.0223	-2341.85
0.9574,0.0426	-2338.53
0.9680,0.0320	-2341.26
0.9514,0.0486	-2348.10
0.9565,0.0435	-2357.16
0.9878,0.0122	-2331.35
0.9808,0.0192	-2326.62
0.9582,0.0418	-2347.85
0.9737,0.0263	-2316.18
0.9485,0.0515	-2359.93
0.9625,0.0375	-2354.35
0.9856,0.0144	-2322.51
0.9845,0.0155	-2310.06
0.9565,0.0435	-2381.89
0.9729,0.0271	-2330.67
0.9528,0.0472	-2342.01
0.9592,0.0408	-2338.37
0.9847,0.0153	-2314.19
0.9831,0.0169	-2322.56
0.9526,0.0474	-2342.03
0.9729,0.0271	-2337.83
0.9530,0.0470	-2360.05
0.9639,0.0361	-2351.17
0.9878,0.0122	-2313.79
0.9830,0.0170	-2314.45
0.9498,0.0502	-2354.07
0.9756,0.0244	-2334.24
0.9477,0.0523	-2359.92
0.9598,0.0402	-2347.84
0.9859,0.0141	-2326.76
0.9834,0.0166	-2322.55
0.9590,0.0410	-2341.54
0.9761,0.0239	-2330.53
0.9344,0.0656	-2357.59
0.9531,0.0469	-2341.98
0.9863,0.0137	-2322.52
0.9817,0.0183	-2338.56
0.9578,0.0422	-2360.35
0.9780,0.0220	-2334.30
0.9391,0.0609	-2351.83
0.9538,0.0462	-2344.95
0.9835,0.0165	-2314.37
0.9840,0.0160	-2318.41
0.9522,0.0478	-2351.04
0.9751,0.0249	-2315.89
0.9345,0.0655	-2376.20
0.9434,0.0566	-2359.93
0.9867,0.0133	-2322.53
0.9838,0.0162	-2326.64
0.9561,0.0439	-2350.98
0.9782,0.0218	-2334.31
0.9373,0.0627	-2365.52
0.9292,0.0708	-2376.03
0.9874,0.0126	-2326.91
0.9808,0.0192	-2318.75
0.9570,0.0430	-2357.18
0.9775,0.0225	-2330.51
0.9446,0.0554	-2359.92
0.9155,0.0845	-2378.56
0.9884,0.0116	-2331.51
0.9819,0.0181	-2326.61
0.9562,0.0438	-2338.65
0.9824,0.0176	-2310.52
0.9345,0.0655	-2378.85
0.9036,0.0964	-2367.88
0.9887,0.0113	-2304.74
0.9837,0.0163	-2314.34
0.9571,0.0429	-2360.29
0.9817,0.0183	-2314.67
0.9301,0.0699	-2396.76
0.9074,0.0926	-2387.99
0.9874,0.0126	-2318.19
0.9812,0.0188	-2322.66
0.9556,0.0444	-2360.19
0.9819,0.0181	-2342.58
0.9300,0.0700	-2376.05
0.9080,0.0920	-2381.12
0.9861,0.0139	-2318.25
0.9817,0.0183	-2334.58
0.9611,0.0389	-2347.84
0.9871,0.0129	-2326.88
0.9375,0.0625	-2360.10
0.8977,0.1023	-2377.30
0.9848,0.0152	-2322.51
0.9829,0.0171	-2330.67
0.9551,0.0449	-2344.87
0.9875,0.0125	-2313.81
0.9206,0.0794	-2376.04
0.9076,0.0924	-2381.13
0.9816,0.0184	-2322.64
0.9831,0.0169	-2322.56
0.9436,0.0564	-2348.66
0.9875,0.0125	-2309.45
0.9119,0.0881	-2366.98
0.8982,0.1018	-2385.96
0.9769,0.0231	-2334.26
0.9840,0.0160	-2314.29
0.9451,0.0549	-2348.53
0.9883,0.0117	-2313.73
0.9213,0.0787	-2388.33
0.8878,0.1122	-2403.09
0.9752,0.0248	-2330.56
0.9848,0.0152	-2322.52
0.9316,0.0684	-2391.75
0.9892,0.0108	-2304.61
0.9252,0.0748	-2350.85
0.8955,0.1045	-2388.23
0.9717,0.0283	-2341.35
0.9880,0.0120	-2313.77
0.9316,0.0684	-2363.03
0.9910,0.0090	-2308.81
0.9366,0.0634	-2381.69
0.8817,0.1183	-2395.04
0.9672,0.0328	-2334.50
0.9895,0.0105	-2313.61
0.9040,0.0960	-2383.53
0.9914,0.0086	-2318.24
0.9344,0.0656	-2346.97
0.8748,0.1252	-2414.85
0.9672,0.0328	-2337.88
0.9897,0.0103	-2331.85
0.9033,0.0967	-2370.15
0.9902,0.0098	-2313.56
0.9237,0.0763	-2373.51
0.8609,0.1391	-2400.12
0.9716,0.0284	-2337.81
0.9891,0.0109	-2318.16
0.9073,0.0927	-2381.14
0.9920,0.0080	-2318.29
0.9091,0.0909	-2394.90
0.8697,0.1303	-2405.24
0.9740,0.0260	-2326.99
0.9903,0.0097	-2313.55
0.9059,0.0941	-2394.79
0.9939,0.0061	-2303.29
0.9181,0.0819	-2397.85
0.8705,0.1295	-2416.65
0.9786,0.0214	-2330.51
0.9913,0.0087	-2318.23
0.9018,0.0982	-2388.05
0.9937,0.0063	-2318.54
0.9241,0.0759	-2391.00
0.8757,0.1243	-2395.35
0.9836,0.0164	-2314.35
0.9894,0.0106	-2313.62
0.8742,0.1258	-2399.33
0.9943,0.0057	-2303.19
0.8991,0.1009	-2381.55
0.8741,0.1259	-2403.21
0.9862,0.0138	-2318.25
0.9838,0.0162	-2322.54
0.8525,0.1475	-2418.36
0.9942,0.0058	-2313.51
0.8994,0.1006	-2401.25
0.8659,0.1341	-2409.10
0.9873,0.0127	-2318.20
0.9866,0.0134	-2322.52
0.8694,0.1306	-2397.67
0.9931,0.0069	-2318.44
0.8928,0.1072	-2392.59
0.8641,0.1359	-2407.29
0.9885,0.0115	-2313.71
0.9836,0.0164	-2330.73
0.8652,0.1348	-2412.83
0.9925,0.0075	-2308.58
0.8954,0.1046	-2388.24
0.8823,0.1177	-2380.92
0.9871,0.0129	-2326.87
0.9783,0.0217	-2322.89
0.8559,0.1441	-2404.08
0.9915,0.0085	-2327.75
0.9040,0.0960	-2390.26
0.8916,0.1084	-2405.26
0.9867,0.0133	-2318.22
0.9740,0.0260	-2348.73
0.8487,0.1513	-2414.97
0.9934,0.0066	-2318.48
0.9376,0.0624	-2379.07
0.8900,0.1100	-2396.85
0.9855,0.0145	-2335.16
0.9720,0.0280	-2330.72
0.8429,0.1571	-2437.05
0.9941,0.0059	-2308.38
0.9415,0.0585	-2371.08
0.8803,0.1197	-2409.08
0.9840,0.0160	-2322.53
0.9705,0.0295	-2341.31
0.8248,0.1752	-2417.94
0.9941,0.0059	-2318.63
0.9550,0.0450	-2326.55
0.8897,0.1103	-2386.42
0.9844,0.0156	-2318.38
0.9722,0.0278	-2320.05
0.8563,0.1437	-2409.41
0.9939,0.0061	-2308.40
0.9467,0.0533	-2357.04
0.9169,0.0831	-2400.14
0.9845,0.0155	-2318.37
0.9720,0.0280	-2352.01
0.8357,0.1643	-2422.11
0.9920,0.0080	-2313.47
0.9224,0.0776	-2373.54
0.9327,0.0673	-2344.58
0.9877,0.0123	-2318.18
0.9694,0.0306	-2334.37
0.8526,0.1474	-2400.81
0.9924,0.0076	-2303.71
0.9281,0.0719	-2360.67
0.9344,0.0656	-2352.28
0.9895,0.0105	-2322.71
0.9755,0.0245	-2323.19
0.8583,0.1417	-2407.52
0.9928,0.0072	-2313.46
0.9178,0.0822	-2376.10
0.9293,0.0707	-2388.92
0.9871,0.0129	-2318.20
0.9791,0.0209	-2342.06
0.8824,0.1176	-2401.06
0.9925,0.0075	-2313.46
0.9006,0.0994	-2388.08
0.9196,0.0804	-2366.32
0.9875,0.0125	-2313.81
0.9829,0.0171	-2330.67
0.9039,0.0961	-2376.81
0.9933,0.0067	-2313.47
0.9037,0.0963	-2388.02
0.9404,0.0596	-2368.28
0.9871,0.0129	-2318.20
0.9830,0.0170	-2330.68
0.9029,0.0971	-2388.03
0.9949,0.0051	-2324.12
0.8917,0.1083	-2384.18
0.9206,0.0794	-2371.14
0.9860,0.0140	-2318.26
0.9831,0.0169	-2318.50
0.8953,0.1047	-2379.66
0.9943,0.0057	-2318.67
0.8964,0.1036	-2379.57
0.9196,0.0804	-2378.50
0.9849,0.0151	-2309.98
0.9806,0.0194	-2334.47
0.8896,0.1104	-2386.43
0.9935,0.0065	-2318.50
0.8866,0.1134	-2407.19
0.9007,0.0993	-2383.66
0.9857,0.0143	-2314.05
0.9733,0.0267	-2345.03
0.8987,0.1013	-2390.31
0.9925,0.0075	-2313.46
0.9016,0.0984	-2379.19
0.8857,0.1143	-2398.98
0.9867,0.0133	-2322.53
0.9698,0.0302	-2330.88
0.8911,0.1089	-2384.23
0.9930,0.0070	-2318.42
0.9017,0.0983	-2392.48
0.8797,0.1203	-2401.11
0.9854,0.0146	-2309.88
0.9692,0.0308	-2337.83
0.8969,0.1031	-2388.18
0.9911,0.0089	-2304.08
0.9149,0.0851	-2385.70
0.9191,0.0809	-2376.07
0.9856,0.0144	-2318.28
0.9668,0.0332	-2341.27
0.8944,0.1056	-2384.01
0.9914,0.0086	-2308.74
0.9117,0.0883	-2388.01
0.9269,0.0731	-2370.93
0.9832,0.0168	-2322.56
0.9589,0.0411	-2341.55
0.9018,0.0982	-2390.27
0.9917,0.0083	-2313.48
0.8960,0.1040	-2398.98
0.9320,0.0680	-2368.25
0.9779,0.0221	-2334.30
0.9618,0.0382	-2351.07
0.8991,0.1009	-2394.68
0.9920,0.0080	-2308.64
0.9031,0.0969	-2379.10
0.9547,0.0453	-2347.94
0.9809,0.0191	-2318.74
0.9630,0.0370	-2328.31
0.8968,0.1032	-2399.00
0.9933,0.0067	-2308.47
0.8897,0.1103	-2415.64
0.9586,0.0414	-2338.42
0.9783,0.0217	-2319.08
0.9565,0.0435	-2347.89
0.9166,0.0834	-2371.35
0.9929,0.0071	-2313.46
0.8869,0.1131	-2417.50
0.9618,0.0382	-2344.62
0.9771,0.0229	-2334.27
0.9534,0.0466	-2335.93
0.9218,0.0782	-2376.02
0.9928,0.0072	-2323.30
0.8797,0.1203	-2391.16
0.9541,0.0459	-2369.20
0.9726,0.0274	-2327.12
0.9524,0.0476	-2351.04
0.9166,0.0834	-2373.74
0.9933,0.0067	-2318.47
0.8633,0.1367	-2399.95
0.9575,0.0425	-2347.86
0.9735,0.0265	-2319.83
0.9452,0.0548	-2345.68
0.9266,0.0734	-2373.47
0.9936,0.0064	-2318.52
0.8456,0.1544	-2426.99
0.9621,0.0379	-2347.85
0.9686,0.0314	-2337.84
0.9428,0.0572	-2357.14
0.9261,0.0739	-2363.36
0.9938,0.0062	-2313.48
0.8366,0.1634	-2413.91
0.9622,0.0378	-2331.67
0.9693,0.0307	-2344.73
0.9529,0.0471	-2357.04
0.9222,0.0778	-2371.07
0.9938,0.0062	-2318.55
0.8264,0.1736	-2436.55
0.9653,0.0347	-2337.96
0.9580,0.0420	-2357.24
0.9549,0.0451	-2338.78
0.9410,0.0590	-2368.29
0.9927,0.0073	-2313.46
0.8249,0.1751	-2441.18
0.9666,0.0334	-2348.00
0.9403,0.0597	-2357.24
0.9574,0.0426	-2360.31
0.9457,0.0543	-2357.05
0.9921,0.0079	-2318.30
0.8322,0.1678	-2415.83
0.9654,0.0346	-2354.60
0.9353,0.0647	-2338.84
0.9596,0.0404	-2341.50
0.9588,0.0412	-2350.99
0.9915,0.0085	-2327.77
0.8434,0.1566	-2428.66
0.9572,0.0428	-2332.33
0.9308,0.0692	-2378.67
0.9659,0.0341	-2334.59
0.9471,0.0529	-2362.80
0.9923,0.0077	-2318.33
0.8459,0.1541	-2444.02
0.9675,0.0325	-2337.87
0.9241,0.0759	-2386.00
0.9660,0.0340	-2327.89
0.9472,0.0528	-2391.67
0.9929,0.0071	-2313.46
0.8518,0.1482	-2409.62
0.9721,0.0279	-2348.46
0.9249,0.0751	-2355.91
0.9628,0.0372	-2331.59
0.9477,0.0523	-2368.61
0.9927,0.0073	-2318.37
0.8315,0.1685	-2422.27
0.9727,0.0273	-2334.25
0.9238,0.0762	-2363.53
0.9523,0.0477	-2336.07
0.9323,0.0677	-2370.87
0.9936,0.0064	-2303.37
0.8493,0.1507	-2421.86
0.9716,0.0284	-2341.35
0.9318,0.0682	-2368.25
0.9439,0.0561	-2362.75
0.9170,0.0830	-2380.93
0.9924,0.0076	-2313.46
0.8477,0.1523	-2416.72
0.9752,0.0248	-2308.54
0.9282,0.0718	-2378.58
0.9562,0.0438	-2347.89
0.9209,0.0791	-2388.31
0.9928,0.0072	-2328.24
0.8539,0.1461	-2418.34
0.9756,0.0244	-2337.92
0.9216,0.0784	-2376.03
0.9508,0.0492	-2377.74
0.9316,0.0684	-2376.09
0.9927,0.0073	-2318.37
0.8574,0.1426	-2407.57
0.9658,0.0342	-2337.94
0.9329,0.0671	-2373.50
0.9598,0.0402	-2335.14
0.9473,0.0527	-2354.14
0.9935,0.0065	-2313.47
0.8878,0.1122	-2413.43
0.9724,0.0276	-2337.82
0.9368,0.0632	-2362.83
0.9538,0.0462	-2347.98
0.9549,0.0451	-2341.83
0.9940,0.0060	-2313.50
0.8997,0.1003	-2390.29
0.9702,0.0298	-2323.88
0.9323,0.0677	-2363.00
0.9540,0.0460	-2347.97
0.9585,0.0415	-2338.43
0.9949,0.0051	-2303.02
0.8985,0.1015	-2383.77
0.9634,0.0366	-2324.98
0.9372,0.0628	-2360.11
0.9643,0.0357	-2331.42
0.9643,0.0357	-2347.90
0.9948,0.0052	-2308.31
0.8927,0.1073	-2382.00
0.9614,0.0386	-2363.92
0.9470,0.0530	-2348.38
0.9576,0.0424	-2344.75
0.9621,0.0379	-2347.85
0.9950,0.0050	-2308.29
0.8732,0.1268	-2405.16
0.9633,0.0367	-2357.68
0.9373,0.0627	-2365.52
0.9593,0.0407	-2341.52
0.9607,0.0393	-2347.84
0.9950,0.0050	-2313.59
0.8857,0.1143	-2394.89
0.9632,0.0368	-2351.13
0.9485,0.0515	-2351.19
0.9533,0.0467	-2344.98
0.9663,0.0337	-2337.91
0.9949,0.0051	-2313.57
0.8834,0.1166	-2405.10
0.9657,0.0343	-2337.94
0.9443,0.0557	-2374.07
0.9636,0.0364	-2344.60
0.9695,0.0305	-2362.04
0.9940,0.0060	-2308.39
0.8978,0.1022	-2390.33
0.9735,0.0265	-2334.24
0.9443,0.0557	-2357.09
0.9640,0.0360	-2344.60
0.9672,0.0328	-2351.42
0.9941,0.0059	-2303.25
0.8979,0.1021	-2409.89
0.9734,0.0266	-2345.04
0.9405,0.0595	-2340.67
0.9667,0.0333	-2331.16
0.9660,0.0340	-2368.04
0.9940,0.0060	-2303.27
0.9131,0.0869	-2416.26
0.9802,0.0198	-2314.92
0.9433,0.0567	-2357.12
0.9477,0.0523	-2368.61
0.9657,0.0343	-2347.95
0.9926,0.0074	-2303.67
0.8860,0.1140	-2390.77
0.9811,0.0189	-2342.40
0.9474,0.0526	-2345.47
0.9513,0.0487	-2357.02
0.9556,0.0444	-2350.98
0.9927,0.0073	-2323.28
