#isoforms=['ENSG00000211445.SE.0.A.up_ENSG00000211445.SE.0.A.SE1_ENSG00000211445.SE.0.A.dn','ENSG00000211445.SE.0.B.up_ENSG00000211445.SE.0.B.dn']	exon_lens=('ENSG00000211445.SE.0.A.up',136),('ENSG00000211445.SE.0.A.SE1',426),('ENSG00000211445.SE.0.A.dn',154),('ENSG00000211445.SE.0.B.up',179),('ENSG00000211445.SE.0.B.dn',154)	iters=5000	burn_in=500	lag=10	percent_accept=96.52	proposal_type=drift	counts=(0,0):26,(0,1):16,(1,0):1,(1,1):23	assigned_counts=0:2,1:38	chrom=chr5	strand=+	mRNA_starts=151020606,151020563	mRNA_ends=151025493,151025493
sampled_psi	log_score
0.0398,0.9602	-232.86
0.0614,0.9386	-237.13
0.0492,0.9508	-239.43
0.0393,0.9607	-232.83
0.0969,0.9031	-241.64
0.1096,0.8904	-242.40
0.0371,0.9629	-232.68
0.0643,0.9357	-234.62
0.0423,0.9577	-239.27
0.0449,0.9551	-236.26
0.0983,0.9017	-241.73
0.1186,0.8814	-244.97
0.0341,0.9659	-235.83
0.0685,0.9315	-237.55
0.0367,0.9633	-235.92
0.0468,0.9532	-236.35
0.0852,0.9148	-236.25
0.1063,0.8937	-242.20
0.0470,0.9530	-236.36
0.0699,0.9301	-237.64
0.0404,0.9596	-232.90
0.0422,0.9578	-236.14
0.1035,0.8965	-244.19
0.1200,0.8800	-243.05
0.0462,0.9538	-239.35
0.0695,0.9305	-237.62
0.0489,0.9511	-239.42
0.0368,0.9632	-235.93
0.0881,0.9119	-241.15
0.0946,0.9054	-239.26
0.0515,0.9485	-236.59
0.0657,0.9343	-250.66
0.0421,0.9579	-233.01
0.0319,0.9681	-235.77
0.0684,0.9316	-237.54
0.0579,0.9421	-236.93
0.0499,0.9501	-242.40
0.0629,0.9371	-234.51
0.0400,0.9600	-236.05
0.0325,0.9675	-232.39
0.0778,0.9222	-238.13
0.0541,0.9459	-233.86
0.0548,0.9452	-236.76
0.0574,0.9426	-236.91
0.0407,0.9593	-236.08
0.0383,0.9617	-239.21
0.0725,0.9275	-235.25
0.0508,0.9492	-236.55
0.0475,0.9525	-233.39
0.0451,0.9549	-245.43
0.0284,0.9716	-235.68
0.0397,0.9603	-239.22
0.0646,0.9354	-237.32
0.0585,0.9415	-242.52
0.0437,0.9563	-236.21
0.0526,0.9474	-236.64
0.0311,0.9689	-232.30
0.0328,0.9672	-232.41
0.0563,0.9437	-236.84
0.0544,0.9456	-233.88
0.0345,0.9655	-232.51
0.0424,0.9576	-236.15
0.0249,0.9751	-235.62
0.0407,0.9593	-236.08
0.0651,0.9349	-237.35
0.0518,0.9482	-239.51
0.0327,0.9673	-235.79
0.0363,0.9637	-235.91
0.0200,0.9800	-231.72
0.0321,0.9679	-242.58
0.0725,0.9275	-235.25
0.0436,0.9564	-239.29
0.0354,0.9646	-232.57
0.0351,0.9649	-232.55
0.0133,0.9867	-231.51
0.0423,0.9577	-233.03
0.0670,0.9330	-240.09
0.0379,0.9621	-232.73
0.0322,0.9678	-232.37
0.0320,0.9680	-239.18
0.0104,0.9896	-231.49
0.0398,0.9602	-236.04
0.0556,0.9444	-236.80
0.0269,0.9731	-232.06
0.0340,0.9660	-232.49
0.0327,0.9673	-232.40
0.0085,0.9915	-231.51
0.0406,0.9594	-236.07
0.0554,0.9446	-236.79
0.0304,0.9696	-235.72
0.0324,0.9676	-235.78
0.0319,0.9681	-232.35
0.0091,0.9909	-231.50
0.0375,0.9625	-232.71
0.0499,0.9501	-236.50
0.0252,0.9748	-231.97
0.0340,0.9660	-239.18
0.0290,0.9710	-232.18
0.0092,0.9908	-236.18
0.0373,0.9627	-232.69
0.0498,0.9502	-239.45
0.0247,0.9753	-231.95
0.0316,0.9684	-232.33
0.0339,0.9661	-232.47
0.0119,0.9881	-231.49
0.0393,0.9607	-232.83
0.0507,0.9493	-239.48
0.0323,0.9677	-235.78
0.0394,0.9606	-239.22
0.0363,0.9637	-239.19
0.0114,0.9886	-231.49
0.0337,0.9663	-232.46
0.0536,0.9464	-236.69
0.0231,0.9769	-231.86
0.0373,0.9627	-235.94
0.0392,0.9608	-232.82
0.0113,0.9887	-231.49
0.0288,0.9712	-235.69
0.0499,0.9501	-233.56
0.0223,0.9777	-235.61
0.0248,0.9752	-231.95
0.0476,0.9524	-233.39
0.0125,0.9875	-231.50
0.0278,0.9722	-235.67
0.0558,0.9442	-236.82
0.0247,0.9753	-235.62
0.0241,0.9759	-231.92
0.0438,0.9562	-242.38
0.0095,0.9905	-231.50
0.0269,0.9731	-239.24
0.0438,0.9562	-236.21
0.0212,0.9788	-235.61
0.0226,0.9774	-235.61
0.0485,0.9515	-233.46
0.0085,0.9915	-231.52
0.0239,0.9761	-231.91
0.0388,0.9612	-242.42
0.0286,0.9714	-235.68
0.0294,0.9706	-232.20
0.0408,0.9592	-232.92
0.0115,0.9885	-231.49
0.0286,0.9714	-232.16
0.0355,0.9645	-232.58
0.0225,0.9775	-243.15
0.0323,0.9677	-239.18
0.0289,0.9711	-235.69
0.0130,0.9870	-231.51
0.0348,0.9652	-242.50
0.0323,0.9677	-235.78
0.0209,0.9791	-231.76
0.0338,0.9662	-232.47
0.0290,0.9710	-235.69
0.0128,0.9872	-231.50
0.0297,0.9703	-235.71
0.0313,0.9687	-232.31
0.0182,0.9818	-231.65
0.0369,0.9631	-239.19
0.0283,0.9717	-235.68
0.0188,0.9812	-231.68
0.0225,0.9775	-231.83
0.0284,0.9716	-232.15
0.0146,0.9854	-231.54
0.0324,0.9676	-235.78
0.0199,0.9801	-231.72
0.0191,0.9809	-235.62
0.0214,0.9786	-239.43
0.0294,0.9706	-232.21
0.0185,0.9815	-231.66
0.0349,0.9651	-232.54
0.0175,0.9825	-231.62
0.0191,0.9809	-231.68
0.0202,0.9798	-235.61
0.0313,0.9687	-235.75
0.0204,0.9796	-231.74
0.0352,0.9648	-232.56
0.0156,0.9844	-231.57
0.0184,0.9816	-231.66
0.0172,0.9828	-231.61
0.0370,0.9630	-235.93
0.0187,0.9813	-231.67
0.0422,0.9578	-233.02
0.0174,0.9826	-231.62
0.0150,0.9850	-235.73
0.0145,0.9855	-231.54
0.0327,0.9673	-232.40
0.0142,0.9858	-231.53
0.0430,0.9570	-236.18
0.0198,0.9802	-231.71
0.0132,0.9868	-231.51
0.0173,0.9827	-239.70
0.0322,0.9678	-235.78
0.0115,0.9885	-235.95
0.0542,0.9458	-239.59
0.0179,0.9821	-231.64
0.0132,0.9868	-231.51
0.0168,0.9832	-231.60
0.0425,0.9575	-236.15
0.0112,0.9888	-231.49
0.0495,0.9505	-242.39
0.0184,0.9816	-231.66
0.0108,0.9892	-231.49
0.0175,0.9825	-235.65
0.0419,0.9581	-236.13
0.0129,0.9871	-231.51
0.0385,0.9615	-232.77
0.0158,0.9842	-231.57
0.0105,0.9895	-231.49
0.0207,0.9793	-231.75
0.0476,0.9524	-233.39
0.0129,0.9871	-240.19
0.0458,0.9542	-236.30
0.0166,0.9834	-231.60
0.0099,0.9901	-231.49
0.0297,0.9703	-235.71
0.0438,0.9562	-236.21
0.0131,0.9869	-231.51
0.0441,0.9559	-239.30
0.0120,0.9880	-231.49
0.0082,0.9918	-231.52
0.0226,0.9774	-235.61
0.0427,0.9573	-236.16
0.0127,0.9873	-235.86
0.0437,0.9563	-233.12
0.0111,0.9889	-231.49
0.0094,0.9906	-231.50
0.0225,0.9775	-235.61
0.0569,0.9431	-236.88
0.0094,0.9906	-231.50
0.0394,0.9606	-232.83
0.0123,0.9877	-231.50
0.0125,0.9875	-240.24
0.0221,0.9779	-235.61
0.0501,0.9499	-236.51
0.0102,0.9898	-231.49
0.0321,0.9679	-235.77
0.0132,0.9868	-235.83
0.0156,0.9844	-231.57
0.0233,0.9767	-235.61
0.0538,0.9462	-236.71
0.0108,0.9892	-236.00
0.0335,0.9665	-232.45
0.0141,0.9859	-231.53
0.0187,0.9813	-235.63
0.0199,0.9801	-231.72
0.0483,0.9517	-236.42
0.0089,0.9911	-231.51
0.0382,0.9618	-239.20
0.0161,0.9839	-231.58
0.0216,0.9784	-231.79
0.0229,0.9771	-231.86
0.0636,0.9364	-237.26
0.0094,0.9906	-231.50
0.0521,0.9479	-233.72
0.0149,0.9851	-231.55
0.0214,0.9786	-231.79
0.0253,0.9747	-235.63
0.0550,0.9450	-236.77
0.0084,0.9916	-231.52
0.0496,0.9504	-236.49
0.0149,0.9851	-235.74
0.0214,0.9786	-231.78
0.0289,0.9711	-232.18
0.0509,0.9491	-233.63
0.0100,0.9900	-231.49
0.0430,0.9570	-242.38
0.0115,0.9885	-235.94
0.0163,0.9837	-239.79
0.0335,0.9665	-235.81
0.0780,0.9220	-243.09
0.0104,0.9896	-231.49
0.0451,0.9549	-239.32
0.0101,0.9899	-231.49
0.0135,0.9865	-231.52
0.0507,0.9493	-236.54
0.0857,0.9143	-243.39
0.0095,0.9905	-231.50
0.0545,0.9455	-242.45
0.0105,0.9895	-231.49
0.0159,0.9841	-231.57
0.0616,0.9384	-239.87
0.0895,0.9105	-238.91
0.0090,0.9910	-231.50
0.0537,0.9463	-236.70
0.0114,0.9886	-231.49
0.0114,0.9886	-231.49
0.0609,0.9391	-239.84
0.1041,0.8959	-239.91
0.0089,0.9911	-231.51
0.0501,0.9499	-233.57
0.0101,0.9899	-231.49
0.0108,0.9892	-231.49
0.0566,0.9434	-239.67
0.0809,0.9191	-235.91
0.0087,0.9913	-231.51
0.0574,0.9426	-236.90
0.0099,0.9901	-231.49
0.0103,0.9897	-231.49
0.0406,0.9594	-236.07
0.0666,0.9334	-237.44
0.0096,0.9904	-245.42
0.0659,0.9341	-240.05
0.0079,0.9921	-231.53
0.0131,0.9869	-231.51
0.0331,0.9669	-232.43
0.0458,0.9542	-239.34
0.0102,0.9898	-236.07
0.0695,0.9305	-235.02
0.0070,0.9930	-231.57
0.0147,0.9853	-231.54
0.0315,0.9685	-232.33
0.0459,0.9541	-245.41
0.0096,0.9904	-231.50
0.0532,0.9468	-239.55
0.0070,0.9930	-231.57
0.0166,0.9834	-235.68
0.0274,0.9726	-232.09
0.0495,0.9505	-236.49
0.0074,0.9926	-231.55
0.0619,0.9381	-237.16
0.0065,0.9935	-231.60
0.0160,0.9840	-231.58
0.0235,0.9765	-235.61
0.0451,0.9549	-236.27
0.0055,0.9945	-231.67
0.0629,0.9371	-239.92
0.0065,0.9935	-231.60
0.0195,0.9805	-231.70
0.0242,0.9758	-231.92
0.0481,0.9519	-239.40
0.0049,0.9951	-231.73
0.0671,0.9329	-245.36
0.0055,0.9945	-236.88
0.0200,0.9800	-231.72
0.0226,0.9774	-231.84
0.0457,0.9543	-236.30
0.0042,0.9958	-231.82
0.0693,0.9307	-240.20
0.0059,0.9941	-231.64
0.0201,0.9799	-231.73
0.0269,0.9731	-235.65
0.0424,0.9576	-236.15
0.0037,0.9963	-231.90
0.0674,0.9326	-247.99
0.0051,0.9949	-231.71
0.0213,0.9787	-239.43
0.0325,0.9675	-235.78
0.0402,0.9598	-236.06
0.0033,0.9967	-231.97
0.0589,0.9411	-236.99
0.0043,0.9957	-231.81
0.0264,0.9736	-232.03
0.0414,0.9586	-232.97
0.0377,0.9623	-242.44
0.0032,0.9968	-232.00
0.0672,0.9328	-240.10
0.0045,0.9955	-231.78
0.0306,0.9694	-232.27
0.0369,0.9631	-235.93
0.0306,0.9694	-235.73
0.0033,0.9967	-231.98
0.0745,0.9255	-240.44
0.0043,0.9957	-231.81
0.0215,0.9785	-231.79
0.0253,0.9747	-239.28
0.0292,0.9708	-232.19
0.0036,0.9964	-231.92
0.0621,0.9379	-242.60
0.0036,0.9964	-231.92
0.0224,0.9776	-231.83
0.0330,0.9670	-239.18
0.0241,0.9759	-231.91
0.0047,0.9953	-237.10
0.0654,0.9346	-242.68
0.0032,0.9968	-232.01
0.0173,0.9827	-231.62
0.0289,0.9711	-232.18
0.0253,0.9747	-231.98
0.0047,0.9953	-231.76
0.0636,0.9364	-237.26
0.0026,0.9974	-232.16
0.0142,0.9858	-235.77
0.0304,0.9696	-235.73
0.0318,0.9682	-232.35
0.0054,0.9946	-231.69
0.0837,0.9163	-238.52
0.0028,0.9972	-232.10
0.0196,0.9804	-231.70
0.0323,0.9677	-235.78
0.0343,0.9657	-232.50
0.0060,0.9940	-231.64
0.0741,0.9259	-235.37
0.0031,0.9969	-232.03
0.0227,0.9773	-231.84
0.0251,0.9749	-235.63
0.0309,0.9691	-232.29
0.0052,0.9948	-231.70
0.0947,0.9053	-239.26
0.0028,0.9972	-232.10
0.0190,0.9810	-235.63
0.0267,0.9733	-232.05
0.0284,0.9716	-242.75
0.0046,0.9954	-231.77
0.0930,0.9070	-245.98
0.0031,0.9969	-232.03
0.0138,0.9862	-231.52
0.0209,0.9791	-235.61
0.0211,0.9789	-231.77
0.0053,0.9947	-236.92
0.1080,0.8920	-248.64
0.0032,0.9968	-232.00
0.0132,0.9868	-231.51
0.0234,0.9766	-235.61
0.0212,0.9788	-235.61
0.0061,0.9939	-231.62
0.1007,0.8993	-237.48
0.0032,0.9968	-232.00
0.0154,0.9846	-231.56
0.0279,0.9721	-232.12
0.0209,0.9791	-231.76
0.0053,0.9947	-231.69
0.1031,0.8969	-237.69
0.0033,0.9967	-231.98
0.0163,0.9837	-231.59
0.0259,0.9741	-235.64
0.0215,0.9785	-235.61
0.0049,0.9951	-231.73
0.0866,0.9134	-241.07
0.0037,0.9963	-231.89
0.0124,0.9876	-231.50
0.0229,0.9771	-231.86
0.0234,0.9766	-231.88
0.0042,0.9958	-231.82
0.0622,0.9378	-237.18
0.0033,0.9967	-231.99
0.0130,0.9870	-235.84
0.0281,0.9719	-235.67
0.0249,0.9751	-231.96
0.0034,0.9966	-231.96
0.0504,0.9496	-239.47
0.0026,0.9974	-232.16
0.0127,0.9873	-231.50
0.0254,0.9746	-235.63
0.0266,0.9734	-232.05
0.0036,0.9964	-231.92
0.0390,0.9610	-242.42
0.0029,0.9971	-232.07
0.0152,0.9848	-235.73
0.0278,0.9722	-235.67
0.0282,0.9718	-232.13
0.0029,0.9971	-232.06
0.0454,0.9546	-236.28
0.0027,0.9973	-232.13
0.0174,0.9826	-235.66
0.0250,0.9750	-235.63
0.0187,0.9813	-231.67
0.0027,0.9973	-232.13
0.0425,0.9575	-236.15
0.0027,0.9973	-232.13
0.0183,0.9817	-231.65
0.0359,0.9641	-235.89
0.0277,0.9723	-239.22
0.0028,0.9972	-232.10
0.0307,0.9693	-239.19
0.0032,0.9968	-237.73
0.0205,0.9795	-235.61
0.0342,0.9658	-239.18
0.0288,0.9712	-235.69
0.0032,0.9968	-232.01
0.0393,0.9607	-232.82
0.0032,0.9968	-232.01
0.0169,0.9831	-235.67
0.0318,0.9682	-232.34
0.0244,0.9756	-231.93
0.0026,0.9974	-232.14
0.0359,0.9641	-232.60
0.0042,0.9958	-231.82
0.0171,0.9829	-231.61
0.0249,0.9751	-231.95
0.0256,0.9744	-231.99
0.0025,0.9975	-232.18
0.0281,0.9719	-232.13
0.0055,0.9945	-231.67
0.0162,0.9838	-235.69
0.0250,0.9750	-235.63
0.0355,0.9645	-232.58
0.0034,0.9966	-231.97
0.0297,0.9703	-232.22
0.0065,0.9935	-231.60
0.0161,0.9839	-231.58
0.0238,0.9762	-235.61
0.0270,0.9730	-235.65
0.0032,0.9968	-232.00
0.0318,0.9682	-232.35
0.0050,0.9950	-231.72
0.0172,0.9828	-239.70
0.0289,0.9711	-232.18
0.0286,0.9714	-232.16
0.0033,0.9967	-231.98
0.0348,0.9652	-235.86
0.0049,0.9951	-237.06
0.0201,0.9799	-231.73
0.0409,0.9591	-239.24
0.0341,0.9659	-232.49
0.0043,0.9957	-231.81
0.0362,0.9638	-239.19
0.0060,0.9940	-231.63
0.0179,0.9821	-231.64
0.0395,0.9605	-232.83
0.0339,0.9661	-232.48
0.0057,0.9943	-231.65
0.0309,0.9691	-235.74
0.0058,0.9942	-231.65
0.0220,0.9780	-235.61
0.0345,0.9655	-232.51
0.0266,0.9734	-235.65
0.0069,0.9931	-236.54
0.0235,0.9765	-235.61
0.0055,0.9945	-231.67
0.0180,0.9820	-231.64
0.0278,0.9722	-235.67
0.0264,0.9736	-235.64
0.0058,0.9942	-236.79
0.0230,0.9770	-235.61
0.0064,0.9936	-231.60
0.0179,0.9821	-235.65
0.0266,0.9734	-232.05
0.0251,0.9749	-231.97
0.0059,0.9941	-231.64
0.0272,0.9728	-232.08
0.0077,0.9923	-231.54
0.0166,0.9834	-239.76
0.0194,0.9806	-231.70
0.0215,0.9785	-231.79
0.0070,0.9930	-231.57
0.0252,0.9748	-231.97
0.0082,0.9918	-231.52
0.0199,0.9801	-231.72
0.0158,0.9842	-235.70
0.0194,0.9806	-231.70
0.0078,0.9922	-231.54
0.0240,0.9760	-231.91
0.0094,0.9906	-231.50
0.0206,0.9794	-231.75
0.0145,0.9855	-231.54
0.0199,0.9801	-231.72
0.0078,0.9922	-231.54
0.0334,0.9666	-232.44
0.0088,0.9912	-231.51
0.0236,0.9764	-231.89
0.0160,0.9840	-231.58
0.0217,0.9783	-235.61
0.0090,0.9910	-231.50
0.0238,0.9762	-235.61
0.0109,0.9891	-231.49
0.0213,0.9787	-235.61
0.0149,0.9851	-231.55
0.0192,0.9808	-235.62
0.0075,0.9925	-231.55
0.0235,0.9765	-231.89
0.0109,0.9891	-231.49
0.0240,0.9760	-231.91
0.0138,0.9862	-231.52
0.0242,0.9758	-235.62
0.0065,0.9935	-231.60
0.0200,0.9800	-231.73
0.0113,0.9887	-231.49
0.0286,0.9714	-232.16
0.0124,0.9876	-231.50
0.0255,0.9745	-239.27
0.0057,0.9943	-231.66
0.0227,0.9773	-235.61
0.0095,0.9905	-231.50
0.0352,0.9648	-235.87
0.0134,0.9866	-235.81
0.0267,0.9733	-232.05
0.0051,0.9949	-236.98
0.0239,0.9761	-231.91
0.0086,0.9914	-231.51
0.0388,0.9612	-232.79
0.0145,0.9855	-235.76
0.0248,0.9752	-231.95
0.0042,0.9958	-231.82
0.0290,0.9710	-232.18
0.0100,0.9900	-231.49
0.0286,0.9714	-232.16
0.0125,0.9875	-231.50
0.0253,0.9747	-231.98
0.0046,0.9954	-231.76
0.0283,0.9717	-232.14
0.0091,0.9909	-231.50
0.0254,0.9746	-239.28
0.0111,0.9889	-231.49
0.0250,0.9750	-235.63
0.0051,0.9949	-231.72
0.0270,0.9730	-235.65
0.0094,0.9906	-231.50
0.0233,0.9767	-235.61
0.0110,0.9890	-231.49
0.0279,0.9721	-239.22
0.0049,0.9951	-231.73
0.0278,0.9722	-235.67
0.0080,0.9920	-231.53
0.0226,0.9774	-231.84
0.0107,0.9893	-231.49
0.0315,0.9685	-232.33
0.0041,0.9959	-231.83
0.0260,0.9740	-232.02
0.0064,0.9936	-231.60
0.0216,0.9784	-231.79
0.0088,0.9912	-231.51
0.0431,0.9569	-233.08
0.0041,0.9959	-231.84
0.0337,0.9663	-232.47
0.0083,0.9917	-231.52
0.0291,0.9709	-235.70
0.0063,0.9937	-231.61
0.0540,0.9460	-233.85
0.0033,0.9967	-231.97
0.0390,0.9610	-242.42
0.0082,0.9918	-231.52
0.0243,0.9757	-231.93
0.0077,0.9923	-231.54
0.0674,0.9326	-237.49
0.0027,0.9973	-232.11
0.0352,0.9648	-232.56
0.0066,0.9934	-231.59
0.0225,0.9775	-235.61
0.0083,0.9917	-231.52
0.0618,0.9382	-239.87
0.0032,0.9968	-232.00
0.0357,0.9643	-232.59
0.0076,0.9924	-231.54
0.0221,0.9779	-231.82
0.0099,0.9901	-231.49
0.0702,0.9298	-237.65
0.0031,0.9969	-232.03
0.0270,0.9730	-232.07
0.0089,0.9911	-231.51
0.0226,0.9774	-231.84
0.0072,0.9928	-231.56
0.0644,0.9356	-239.98
0.0038,0.9962	-231.89
0.0294,0.9706	-235.70
0.0092,0.9908	-236.18
0.0264,0.9736	-235.64
0.0090,0.9910	-231.51
0.0636,0.9364	-234.57
0.0037,0.9963	-231.91
0.0356,0.9644	-232.58
0.0085,0.9915	-231.52
0.0208,0.9792	-239.46
0.0109,0.9891	-231.49
0.0598,0.9402	-248.06
0.0034,0.9966	-237.63
0.0279,0.9721	-235.67
0.0066,0.9934	-236.60
0.0193,0.9807	-235.62
0.0086,0.9914	-231.51
0.0696,0.9304	-237.62
0.0030,0.9970	-232.05
0.0245,0.9755	-235.62
0.0057,0.9943	-236.82
0.0223,0.9777	-235.61
0.0088,0.9912	-231.51
0.0578,0.9422	-234.14
0.0030,0.9970	-232.04
0.0216,0.9784	-231.79
0.0080,0.9920	-231.53
0.0158,0.9842	-231.57
0.0078,0.9922	-231.54
0.0718,0.9282	-235.19
0.0025,0.9975	-232.18
0.0157,0.9843	-231.57
0.0096,0.9904	-231.50
0.0144,0.9856	-235.76
0.0088,0.9912	-231.51
0.0747,0.9253	-245.49
0.0027,0.9973	-232.14
0.0198,0.9802	-231.72
0.0098,0.9902	-240.71
0.0110,0.9890	-231.49
0.0092,0.9908	-231.50
0.0780,0.9220	-238.15
0.0029,0.9971	-232.07
0.0185,0.9815	-243.57
0.0076,0.9924	-236.41
0.0086,0.9914	-231.51
0.0097,0.9903	-231.49
0.0750,0.9250	-248.01
0.0036,0.9964	-231.92
0.0204,0.9796	-231.74
0.0054,0.9946	-236.90
0.0095,0.9905	-231.50
0.0075,0.9925	-231.55
0.0761,0.9239	-240.52
0.0038,0.9962	-231.88
0.0167,0.9833	-231.60
0.0072,0.9928	-231.56
0.0093,0.9907	-236.17
0.0067,0.9933	-231.58
0.0688,0.9312	-237.57
0.0041,0.9959	-231.84
0.0157,0.9843	-231.57
0.0092,0.9908	-231.50
0.0124,0.9876	-235.88
0.0065,0.9935	-236.63
0.0716,0.9284	-237.74
0.0045,0.9955	-237.18
0.0140,0.9860	-231.53
0.0074,0.9926	-231.55
0.0103,0.9897	-236.06
0.0075,0.9925	-236.43
0.0663,0.9337	-237.42
0.0043,0.9957	-231.81
0.0133,0.9867	-231.51
0.0073,0.9927	-231.56
0.0099,0.9901	-231.49
0.0084,0.9916	-231.52
0.0558,0.9442	-242.47
0.0037,0.9963	-231.89
0.0150,0.9850	-231.55
0.0069,0.9931	-236.55
0.0105,0.9895	-231.49
0.0088,0.9912	-231.51
0.0677,0.9323	-240.13
0.0044,0.9956	-231.80
0.0137,0.9863	-235.80
0.0059,0.9941	-231.64
0.0102,0.9898	-231.49
0.0104,0.9896	-236.05
0.0604,0.9396	-239.82
0.0046,0.9954	-231.77
0.0141,0.9859	-235.78
0.0061,0.9939	-231.62
0.0086,0.9914	-231.51
0.0129,0.9871	-235.84
0.0670,0.9330	-237.46
0.0047,0.9953	-231.75
0.0150,0.9850	-231.55
0.0057,0.9943	-231.66
0.0117,0.9883	-231.49
0.0105,0.9895	-231.49
0.0781,0.9219	-240.62
0.0037,0.9963	-231.90
0.0151,0.9849	-235.73
0.0053,0.9947	-231.69
0.0121,0.9879	-231.50
0.0116,0.9884	-231.49
0.0738,0.9262	-237.88
0.0043,0.9957	-231.81
0.0162,0.9838	-231.58
0.0054,0.9946	-231.68
0.0124,0.9876	-231.50
0.0090,0.9910	-231.50
0.0639,0.9361	-239.96
0.0035,0.9965	-231.94
0.0192,0.9808	-235.62
0.0074,0.9926	-231.55
0.0112,0.9888	-235.97
0.0079,0.9921	-231.53
0.0721,0.9279	-242.88
0.0028,0.9972	-232.10
0.0209,0.9791	-235.61
0.0085,0.9915	-231.52
0.0109,0.9891	-231.49
0.0067,0.9933	-231.59
0.0796,0.9204	-238.25
0.0027,0.9973	-232.13
0.0172,0.9828	-231.62
0.0089,0.9911	-231.51
0.0162,0.9838	-231.58
0.0062,0.9938	-236.70
0.0709,0.9291	-240.27
0.0016,0.9984	-232.56
0.0182,0.9818	-231.65
0.0084,0.9916	-231.52
0.0121,0.9879	-235.90
0.0061,0.9939	-231.63
0.0689,0.9311	-237.57
0.0012,0.9988	-232.78
0.0183,0.9817	-235.64
0.0112,0.9888	-235.97
0.0093,0.9907	-231.50
0.0049,0.9951	-231.73
0.0718,0.9282	-245.43
0.0011,0.9989	-232.84
0.0203,0.9797	-235.61
0.0107,0.9893	-236.02
0.0086,0.9914	-231.51
0.0047,0.9953	-231.76
0.0635,0.9365	-237.25
0.0016,0.9984	-232.53
0.0228,0.9772	-235.61
0.0092,0.9908	-231.50
0.0076,0.9924	-231.54
0.0061,0.9939	-231.62
0.0537,0.9463	-236.70
0.0015,0.9985	-232.58
0.0228,0.9772	-231.85
0.0087,0.9913	-231.51
0.0070,0.9930	-231.57
0.0072,0.9928	-231.56
0.0564,0.9436	-236.85
0.0011,0.9989	-232.87
0.0219,0.9781	-231.81
0.0104,0.9896	-236.04
0.0060,0.9940	-231.63
0.0073,0.9927	-231.56
0.0587,0.9413	-236.98
0.0014,0.9986	-232.63
0.0251,0.9749	-231.96
0.0104,0.9896	-231.49
0.0060,0.9940	-231.63
0.0061,0.9939	-231.63
0.0574,0.9426	-242.50
0.0014,0.9986	-232.66
0.0211,0.9789	-235.61
0.0089,0.9911	-231.51
0.0061,0.9939	-231.62
0.0060,0.9940	-231.63
0.0729,0.9271	-237.83
0.0013,0.9987	-232.72
0.0216,0.9784	-231.79
0.0085,0.9915	-236.28
0.0060,0.9940	-231.63
0.0063,0.9937	-231.61
0.0749,0.9251	-240.46
0.0012,0.9988	-232.82
0.0268,0.9732	-232.06
0.0082,0.9918	-231.52
0.0062,0.9938	-231.62
0.0059,0.9941	-231.64
0.0789,0.9211	-238.20
0.0010,0.9990	-233.00
0.0286,0.9714	-232.16
0.0102,0.9898	-236.06
0.0059,0.9941	-231.64
0.0050,0.9950	-231.72
0.0776,0.9224	-238.12
0.0010,0.9990	-232.94
0.0283,0.9717	-232.14
0.0122,0.9878	-231.50
0.0070,0.9930	-231.57
0.0045,0.9955	-237.19
0.0754,0.9246	-240.49
0.0008,0.9992	-233.21
0.0333,0.9667	-235.81
0.0111,0.9889	-231.49
0.0053,0.9947	-231.69
0.0054,0.9946	-236.88
0.0717,0.9283	-245.43
0.0006,0.9994	-233.37
0.0308,0.9692	-235.74
0.0097,0.9903	-231.49
0.0055,0.9945	-231.68
0.0052,0.9948	-231.70
0.0733,0.9267	-242.92
0.0007,0.9993	-233.25
0.0350,0.9650	-232.54
0.0075,0.9925	-231.55
0.0050,0.9950	-231.72
0.0057,0.9943	-231.66
0.0716,0.9284	-242.87
0.0008,0.9992	-233.15
0.0365,0.9635	-232.64
0.0063,0.9937	-231.61
0.0053,0.9947	-236.93
0.0076,0.9924	-231.54
0.0772,0.9228	-238.09
0.0008,0.9992	-233.22
0.0388,0.9612	-239.21
0.0059,0.9941	-231.64
0.0050,0.9950	-231.72
0.0063,0.9937	-231.61
0.0644,0.9356	-237.31
0.0008,0.9992	-233.19
0.0380,0.9620	-232.74
0.0063,0.9937	-231.61
0.0079,0.9921	-236.36
0.0060,0.9940	-231.63
0.0702,0.9298	-237.65
0.0010,0.9990	-232.93
0.0373,0.9627	-232.69
0.0056,0.9944	-231.66
0.0081,0.9919	-231.53
0.0061,0.9939	-231.63
0.0722,0.9278	-242.89
0.0010,0.9990	-232.96
0.0357,0.9643	-232.59
0.0071,0.9929	-231.56
0.0083,0.9917	-231.52
0.0070,0.9930	-231.57
0.0891,0.9109	-236.55
0.0011,0.9989	-232.90
0.0379,0.9621	-232.73
0.0070,0.9930	-231.57
0.0105,0.9895	-236.03
0.0076,0.9924	-231.54
0.0790,0.9210	-243.12
0.0012,0.9988	-232.83
0.0274,0.9726	-232.09
0.0060,0.9940	-231.63
0.0099,0.9901	-231.49
0.0066,0.9934	-231.59
0.0653,0.9347	-234.69
0.0011,0.9989	-232.86
0.0245,0.9755	-231.94
0.0052,0.9948	-231.70
0.0101,0.9899	-236.07
0.0069,0.9931	-236.55
0.0476,0.9524	-233.39
0.0009,0.9991	-233.04
0.0240,0.9760	-231.91
0.0052,0.9948	-231.70
0.0094,0.9906	-231.50
0.0073,0.9927	-231.56
0.0542,0.9458	-236.73
0.0011,0.9989	-232.90
0.0245,0.9755	-235.62
0.0045,0.9955	-231.78
0.0092,0.9908	-236.18
0.0089,0.9911	-231.51
0.0500,0.9500	-236.51
0.0010,0.9990	-232.95
0.0222,0.9778	-239.39
0.0046,0.9954	-231.76
0.0097,0.9903	-236.12
0.0094,0.9906	-236.15
0.0536,0.9464	-236.69
0.0013,0.9987	-232.74
0.0199,0.9801	-231.72
0.0055,0.9945	-236.86
0.0123,0.9877	-231.50
0.0084,0.9916	-231.52
0.0586,0.9414	-236.97
0.0012,0.9988	-232.78
0.0171,0.9829	-231.61
0.0064,0.9936	-231.61
0.0089,0.9911	-231.51
0.0070,0.9930	-231.57
0.0506,0.9494	-233.61
0.0014,0.9986	-232.65
0.0192,0.9808	-231.69
0.0074,0.9926	-231.55
0.0108,0.9892	-236.00
0.0062,0.9938	-231.62
0.0408,0.9592	-232.92
0.0014,0.9986	-232.65
0.0213,0.9787	-231.78
0.0077,0.9923	-231.54
0.0112,0.9888	-231.49
0.0080,0.9920	-231.53
0.0402,0.9598	-236.06
0.0013,0.9987	-232.72
0.0234,0.9766	-235.61
0.0059,0.9941	-231.64
0.0083,0.9917	-236.30
0.0069,0.9931	-231.57
0.0378,0.9622	-232.73
0.0017,0.9983	-232.51
0.0210,0.9790	-231.77
0.0044,0.9956	-237.20
0.0070,0.9930	-231.57
0.0068,0.9932	-231.58
0.0412,0.9588	-232.95
0.0016,0.9984	-232.52
0.0192,0.9808	-235.62
0.0042,0.9958	-231.83
0.0073,0.9927	-231.56
0.0071,0.9929	-236.50
0.0559,0.9441	-239.65
0.0021,0.9979	-232.33
0.0184,0.9816	-235.64
0.0036,0.9964	-231.92
0.0072,0.9928	-236.49
0.0085,0.9915	-231.52
0.0773,0.9227	-235.62
0.0016,0.9984	-232.52
0.0168,0.9832	-231.60
0.0034,0.9966	-237.63
0.0074,0.9926	-231.55
0.0070,0.9930	-231.57
0.0851,0.9149	-238.61
0.0015,0.9985	-232.61
0.0151,0.9849	-231.55
0.0032,0.9968	-232.00
0.0089,0.9911	-236.21
0.0077,0.9923	-231.54
0.0869,0.9131	-243.43
0.0015,0.9985	-232.58
0.0124,0.9876	-235.87
0.0029,0.9971	-237.90
0.0078,0.9922	-231.54
0.0077,0.9923	-231.54
0.0849,0.9151	-243.35
0.0017,0.9983	-232.50
0.0119,0.9881	-235.91
0.0026,0.9974	-232.16
0.0073,0.9927	-236.48
0.0068,0.9932	-236.57
0.0623,0.9377	-239.89
0.0018,0.9982	-232.46
0.0120,0.9880	-231.49
0.0032,0.9968	-232.00
0.0074,0.9926	-231.55
0.0060,0.9940	-231.63
0.0620,0.9380	-242.60
0.0018,0.9982	-232.45
0.0117,0.9883	-231.49
0.0032,0.9968	-232.01
0.0080,0.9920	-231.53
0.0056,0.9944	-231.66
0.0536,0.9464	-239.57
0.0019,0.9981	-232.40
0.0112,0.9888	-231.49
0.0034,0.9966	-231.96
0.0075,0.9925	-231.55
0.0047,0.9953	-231.75
0.0570,0.9430	-234.07
0.0029,0.9971	-232.07
0.0086,0.9914	-241.00
0.0033,0.9967	-231.98
0.0062,0.9938	-241.77
0.0053,0.9947	-231.69
0.0627,0.9373	-234.50
0.0033,0.9967	-231.98
0.0080,0.9920	-231.53
0.0033,0.9967	-231.97
0.0050,0.9950	-231.72
0.0071,0.9929	-236.50
0.0601,0.9399	-239.81
0.0046,0.9954	-231.76
0.0076,0.9924	-231.55
0.0045,0.9955	-231.79
0.0057,0.9943	-231.65
0.0077,0.9923	-231.54
0.0593,0.9407	-237.01
0.0063,0.9937	-231.61
0.0101,0.9899	-236.07
0.0044,0.9956	-231.79
0.0065,0.9935	-231.60
0.0072,0.9928	-231.56
0.0732,0.9268	-235.31
0.0051,0.9949	-231.71
0.0112,0.9888	-231.49
0.0041,0.9959	-231.83
0.0068,0.9932	-236.56
0.0073,0.9927	-231.56
0.0708,0.9292	-235.12
0.0047,0.9953	-231.76
0.0115,0.9885	-231.49
0.0040,0.9960	-231.85
0.0074,0.9926	-231.55
0.0071,0.9929	-231.57
0.0799,0.9201	-238.27
0.0060,0.9940	-231.63
0.0116,0.9884	-231.49
0.0040,0.9960	-231.85
0.0089,0.9911	-231.51
0.0075,0.9925	-231.55
0.0742,0.9258	-237.91
0.0069,0.9931	-231.57
0.0132,0.9868	-231.51
0.0041,0.9959	-237.33
0.0081,0.9919	-236.33
0.0070,0.9930	-231.57
0.0557,0.9443	-233.98
0.0073,0.9927	-231.56
0.0104,0.9896	-236.04
0.0041,0.9959	-231.84
0.0083,0.9917	-231.52
0.0075,0.9925	-236.43
0.0565,0.9435	-236.85
0.0075,0.9925	-231.55
0.0088,0.9912	-231.51
0.0036,0.9964	-237.53
0.0097,0.9903	-236.12
0.0066,0.9934	-231.59
0.0686,0.9314	-240.17
0.0080,0.9920	-231.53
0.0086,0.9914	-231.51
0.0027,0.9973	-232.11
0.0089,0.9911	-231.51
0.0080,0.9920	-231.53
0.0602,0.9398	-239.81
0.0073,0.9927	-236.46
0.0093,0.9907	-231.50
0.0026,0.9974	-232.14
0.0078,0.9922	-231.54
0.0068,0.9932	-231.58
0.0662,0.9338	-234.77
0.0059,0.9941	-231.64
0.0109,0.9891	-231.49
0.0029,0.9971	-232.07
0.0076,0.9924	-236.41
0.0051,0.9949	-231.71
0.0564,0.9436	-234.03
0.0084,0.9916	-231.52
0.0108,0.9892	-231.49
0.0025,0.9975	-232.18
0.0063,0.9937	-231.61
0.0049,0.9951	-231.73
0.0636,0.9364	-234.57
0.0095,0.9905	-231.50
0.0109,0.9891	-231.49
0.0025,0.9975	-232.19
0.0074,0.9926	-231.55
0.0043,0.9957	-231.80
0.0540,0.9460	-236.72
0.0101,0.9899	-236.07
0.0124,0.9876	-231.50
0.0023,0.9977	-232.24
0.0071,0.9929	-231.56
0.0046,0.9954	-237.13
0.0599,0.9401	-234.29
0.0106,0.9894	-236.03
0.0107,0.9893	-231.49
0.0020,0.9980	-232.36
0.0072,0.9928	-231.56
0.0041,0.9959	-231.84
0.0749,0.9251	-242.98
0.0096,0.9904	-231.50
0.0115,0.9885	-235.94
0.0021,0.9979	-232.32
0.0082,0.9918	-231.52
0.0040,0.9960	-231.85
0.0613,0.9387	-245.31
0.0077,0.9923	-241.25
0.0141,0.9859	-235.78
0.0023,0.9977	-232.25
0.0071,0.9929	-231.56
0.0029,0.9971	-232.07
0.0626,0.9374	-234.49
0.0070,0.9930	-231.57
0.0114,0.9886	-231.49
0.0024,0.9976	-232.21
0.0083,0.9917	-231.52
0.0028,0.9972	-232.10
0.0718,0.9282	-235.20
0.0062,0.9938	-231.62
0.0143,0.9857	-235.77
0.0021,0.9979	-232.32
0.0091,0.9909	-231.50
0.0029,0.9971	-232.07
0.0681,0.9319	-234.91
0.0059,0.9941	-236.77
0.0159,0.9841	-235.70
0.0019,0.9981	-232.42
0.0098,0.9902	-236.11
0.0024,0.9976	-232.20
0.0680,0.9320	-240.14
0.0057,0.9943	-231.66
0.0132,0.9868	-240.13
0.0017,0.9983	-232.51
0.0105,0.9895	-231.49
0.0030,0.9970	-232.06
0.0628,0.9372	-239.92
0.0055,0.9945	-231.67
0.0121,0.9879	-231.50
0.0016,0.9984	-232.52
0.0111,0.9889	-235.98
0.0022,0.9978	-232.28
0.0799,0.9201	-243.16
0.0043,0.9957	-231.80
0.0117,0.9883	-231.49
0.0018,0.9982	-232.46
0.0123,0.9877	-231.50
0.0021,0.9979	-232.34
0.0773,0.9227	-238.10
0.0051,0.9949	-231.72
0.0117,0.9883	-231.49
0.0020,0.9980	-232.38
0.0110,0.9890	-235.99
0.0020,0.9980	-232.38
0.0851,0.9149	-245.74
0.0040,0.9960	-231.85
0.0105,0.9895	-231.49
0.0020,0.9980	-232.36
0.0093,0.9907	-236.16
0.0021,0.9979	-232.33
0.0855,0.9145	-245.75
0.0041,0.9959	-231.83
0.0106,0.9894	-231.49
0.0024,0.9976	-232.23
0.0094,0.9906	-231.50
0.0025,0.9975	-232.17
0.0808,0.9192	-235.90
0.0061,0.9939	-231.62
0.0088,0.9912	-231.51
0.0031,0.9969	-232.03
0.0097,0.9903	-231.49
0.0026,0.9974	-232.15
0.1018,0.8982	-244.11
0.0068,0.9932	-236.57
0.0080,0.9920	-231.53
0.0038,0.9962	-231.88
0.0112,0.9888	-235.97
0.0027,0.9973	-232.13
0.0953,0.9047	-246.06
0.0064,0.9936	-236.66
0.0076,0.9924	-231.55
0.0038,0.9962	-231.89
0.0130,0.9870	-231.51
0.0029,0.9971	-232.07
0.0895,0.9105	-238.90
0.0054,0.9946	-231.68
0.0079,0.9921	-231.53
0.0051,0.9949	-231.72
0.0133,0.9867	-235.82
0.0033,0.9967	-237.67
0.0861,0.9139	-243.40
0.0062,0.9938	-231.62
0.0093,0.9907	-231.50
0.0049,0.9951	-231.73
0.0171,0.9829	-235.66
0.0040,0.9960	-231.85
0.0843,0.9157	-238.56
0.0054,0.9946	-231.69
0.0086,0.9914	-241.01
0.0051,0.9949	-231.71
0.0178,0.9822	-231.64
0.0045,0.9955	-231.79
0.0771,0.9229	-238.09
0.0052,0.9948	-231.70
0.0097,0.9903	-231.49
0.0056,0.9944	-231.66
0.0158,0.9842	-231.57
0.0048,0.9952	-231.75
0.0679,0.9321	-240.13
0.0060,0.9940	-236.73
0.0095,0.9905	-231.50
0.0069,0.9931	-231.58
0.0170,0.9830	-235.67
0.0057,0.9943	-231.66
0.0768,0.9232	-238.07
0.0049,0.9951	-231.73
0.0088,0.9912	-231.51
0.0055,0.9945	-231.67
0.0131,0.9869	-235.83
0.0057,0.9943	-231.65
0.0717,0.9283	-242.87
0.0048,0.9952	-231.74
0.0108,0.9892	-231.49
0.0050,0.9950	-231.72
0.0158,0.9842	-231.57
0.0054,0.9946	-231.68
0.0750,0.9250	-237.95
0.0043,0.9957	-231.80
0.0138,0.9862	-231.52
0.0047,0.9953	-231.76
0.0164,0.9836	-231.59
0.0044,0.9956	-231.79
0.0938,0.9062	-241.47
0.0045,0.9955	-231.78
0.0161,0.9839	-231.58
0.0042,0.9958	-231.82
0.0221,0.9779	-243.19
0.0054,0.9946	-231.68
0.0734,0.9266	-235.32
0.0037,0.9963	-237.52
0.0170,0.9830	-231.61
0.0043,0.9957	-231.80
0.0177,0.9823	-231.63
0.0050,0.9950	-231.73
0.0677,0.9323	-242.75
0.0036,0.9964	-231.92
0.0174,0.9826	-231.62
0.0043,0.9957	-231.81
0.0130,0.9870	-231.51
0.0058,0.9942	-236.80
0.0648,0.9352	-237.33
0.0034,0.9966	-231.96
0.0174,0.9826	-231.62
0.0051,0.9949	-236.98
0.0121,0.9879	-231.50
0.0056,0.9944	-231.67
0.0576,0.9424	-234.12
0.0039,0.9961	-231.86
0.0122,0.9878	-235.89
0.0047,0.9953	-231.76
0.0125,0.9875	-231.50
0.0051,0.9949	-231.71
0.0502,0.9498	-239.46
0.0046,0.9954	-231.77
0.0134,0.9866	-231.51
0.0056,0.9944	-231.66
0.0142,0.9858	-240.02
0.0049,0.9951	-231.74
0.0612,0.9388	-239.85
0.0049,0.9951	-231.74
0.0125,0.9875	-231.50
0.0048,0.9952	-231.75
0.0102,0.9898	-231.49
0.0069,0.9931	-231.58
0.0605,0.9395	-237.08
0.0049,0.9951	-231.73
0.0147,0.9853	-231.54
0.0041,0.9959	-231.84
0.0173,0.9827	-231.62
0.0066,0.9934	-231.59
0.0629,0.9371	-237.22
0.0061,0.9939	-231.63
0.0134,0.9866	-231.51
0.0042,0.9958	-231.82
0.0143,0.9857	-235.76
0.0063,0.9937	-236.68
0.0553,0.9447	-233.95
0.0078,0.9922	-231.54
0.0152,0.9848	-231.55
0.0041,0.9959	-231.84
0.0138,0.9862	-231.52
0.0074,0.9926	-231.55
0.0500,0.9500	-239.45
0.0088,0.9912	-231.51
0.0157,0.9843	-231.57
0.0040,0.9960	-237.36
0.0138,0.9862	-231.52
0.0081,0.9919	-231.53
0.0327,0.9673	-232.40
0.0087,0.9913	-231.51
0.0169,0.9831	-235.67
0.0047,0.9953	-231.75
0.0170,0.9830	-231.61
0.0105,0.9895	-236.04
0.0349,0.9651	-235.86
0.0090,0.9910	-231.51
0.0214,0.9786	-231.78
0.0052,0.9948	-231.70
0.0183,0.9817	-231.66
0.0127,0.9873	-231.50
0.0350,0.9650	-235.86
0.0123,0.9877	-231.50
0.0225,0.9775	-231.84
0.0057,0.9943	-231.66
0.0147,0.9853	-231.54
0.0124,0.9876	-231.50
0.0352,0.9648	-239.18
0.0119,0.9881	-240.33
0.0199,0.9801	-231.72
0.0083,0.9917	-231.52
0.0181,0.9819	-231.65
0.0170,0.9830	-235.67
0.0376,0.9624	-235.96
0.0116,0.9884	-235.94
0.0179,0.9821	-235.65
0.0069,0.9931	-231.58
0.0143,0.9857	-240.00
0.0161,0.9839	-231.58
0.0432,0.9568	-233.09
0.0117,0.9883	-231.49
0.0192,0.9808	-231.69
0.0066,0.9934	-231.59
0.0191,0.9809	-235.62
0.0178,0.9822	-231.64
0.0470,0.9530	-239.37
0.0131,0.9869	-231.51
0.0186,0.9814	-235.63
0.0067,0.9933	-231.58
0.0192,0.9808	-231.69
0.0136,0.9864	-231.52
0.0435,0.9565	-236.20
0.0141,0.9859	-235.77
0.0161,0.9839	-231.58
0.0093,0.9907	-231.50
0.0183,0.9817	-235.64
0.0139,0.9861	-231.52
0.0448,0.9552	-236.26
0.0165,0.9835	-235.68
0.0135,0.9865	-235.81
0.0115,0.9885	-231.49
0.0196,0.9804	-231.71
0.0101,0.9899	-231.49
0.0368,0.9632	-235.93
0.0192,0.9808	-231.69
0.0152,0.9848	-231.56
0.0149,0.9851	-231.55
0.0202,0.9798	-235.61
0.0098,0.9902	-236.11
0.0443,0.9557	-239.31
0.0155,0.9845	-244.01
0.0154,0.9846	-231.56
0.0207,0.9793	-235.61
0.0215,0.9785	-231.79
0.0106,0.9894	-236.02
0.0491,0.9509	-233.50
0.0130,0.9870	-231.51
0.0201,0.9799	-235.61
0.0250,0.9750	-235.63
0.0182,0.9818	-231.65
0.0097,0.9903	-231.49
0.0511,0.9489	-233.64
0.0152,0.9848	-235.73
0.0167,0.9833	-231.60
0.0262,0.9738	-235.64
0.0168,0.9832	-231.60
0.0092,0.9908	-231.50
0.0465,0.9535	-239.36
0.0178,0.9822	-231.64
0.0163,0.9837	-239.79
0.0289,0.9711	-239.20
0.0196,0.9804	-231.71
0.0097,0.9903	-231.49
0.0537,0.9463	-239.57
0.0156,0.9844	-231.56
0.0160,0.9840	-235.70
0.0258,0.9742	-232.01
0.0242,0.9758	-231.92
0.0108,0.9892	-236.01
0.0617,0.9383	-239.87
0.0136,0.9864	-235.80
0.0142,0.9858	-235.77
0.0237,0.9763	-231.89
0.0283,0.9717	-239.21
0.0128,0.9872	-231.50
0.0499,0.9501	-233.56
0.0141,0.9859	-235.78
0.0117,0.9883	-231.49
0.0181,0.9819	-231.65
0.0323,0.9677	-232.38
0.0136,0.9864	-231.52
0.0514,0.9486	-239.50
0.0170,0.9830	-231.61
0.0110,0.9890	-231.49
0.0162,0.9838	-231.58
0.0258,0.9742	-232.01
0.0136,0.9864	-231.52
0.0444,0.9556	-239.31
0.0152,0.9848	-231.55
0.0118,0.9882	-244.78
0.0164,0.9836	-235.68
0.0343,0.9657	-235.84
0.0119,0.9881	-231.49
0.0328,0.9672	-232.41
0.0221,0.9779	-239.40
0.0105,0.9895	-231.49
0.0154,0.9846	-239.88
0.0300,0.9700	-232.24
0.0132,0.9868	-235.83
0.0322,0.9678	-232.37
0.0245,0.9755	-235.62
0.0076,0.9924	-231.54
0.0132,0.9868	-231.51
0.0329,0.9671	-232.41
0.0123,0.9877	-231.50
0.0489,0.9511	-239.42
0.0234,0.9766	-231.88
0.0082,0.9918	-231.52
0.0121,0.9879	-240.30
0.0268,0.9732	-235.65
0.0099,0.9901	-231.49
0.0419,0.9581	-236.13
0.0194,0.9806	-231.70
0.0076,0.9924	-231.54
0.0132,0.9868	-231.51
0.0326,0.9674	-235.79
0.0092,0.9908	-231.50
0.0507,0.9493	-236.54
0.0162,0.9838	-231.58
0.0078,0.9922	-231.54
0.0101,0.9899	-240.65
0.0344,0.9656	-235.84
0.0096,0.9904	-236.13
0.0558,0.9442	-236.82
0.0152,0.9848	-231.55
0.0090,0.9910	-231.51
0.0107,0.9893	-236.02
0.0394,0.9606	-232.83
0.0073,0.9927	-231.56
0.0607,0.9393	-234.35
0.0171,0.9829	-231.61
0.0087,0.9913	-231.51
0.0122,0.9878	-235.89
0.0457,0.9543	-233.26
0.0090,0.9910	-231.50
0.0542,0.9458	-236.73
0.0209,0.9791	-231.76
0.0068,0.9932	-231.58
0.0116,0.9884	-235.94
0.0408,0.9592	-236.08
0.0127,0.9873	-240.22
0.0591,0.9409	-237.00
0.0241,0.9759	-231.92
0.0071,0.9929	-236.50
0.0126,0.9874	-231.50
0.0453,0.9547	-236.28
0.0152,0.9848	-231.55
0.0570,0.9430	-245.30
0.0222,0.9778	-243.18
0.0081,0.9919	-231.53
0.0134,0.9866	-231.51
0.0467,0.9533	-236.35
0.0184,0.9816	-231.66
0.0632,0.9368	-234.54
0.0259,0.9741	-235.64
0.0088,0.9912	-231.51
0.0145,0.9855	-231.54
0.0484,0.9516	-236.43
0.0152,0.9848	-231.56
0.0557,0.9443	-245.30
0.0298,0.9702	-232.23
0.0112,0.9888	-231.49
0.0137,0.9863	-235.79
0.0419,0.9581	-236.13
0.0134,0.9866	-231.51
0.0513,0.9487	-242.41
0.0338,0.9662	-232.47
0.0126,0.9874	-231.50
0.0115,0.9885	-231.49
0.0464,0.9536	-239.36
0.0132,0.9868	-231.51
0.0475,0.9525	-236.39
0.0340,0.9660	-235.83
0.0110,0.9890	-231.49
0.0105,0.9895	-231.49
0.0546,0.9454	-236.75
0.0148,0.9852	-231.54
0.0422,0.9578	-239.26
0.0345,0.9655	-235.84
0.0122,0.9878	-235.89
0.0115,0.9885	-231.49
0.0512,0.9488	-239.49
0.0137,0.9863	-235.80
0.0432,0.9568	-236.19
0.0382,0.9618	-232.75
0.0123,0.9877	-231.50
0.0138,0.9862	-231.52
0.0469,0.9531	-233.35
0.0114,0.9886	-231.49
0.0411,0.9589	-232.94
0.0367,0.9633	-239.19
0.0140,0.9860	-231.53
0.0111,0.9889	-235.98
0.0491,0.9509	-239.43
0.0138,0.9862	-235.79
0.0482,0.9518	-236.42
0.0451,0.9549	-236.27
0.0182,0.9818	-231.65
0.0128,0.9872	-231.50
0.0433,0.9567	-239.29
0.0145,0.9855	-235.76
0.0481,0.9519	-233.43
0.0413,0.9587	-236.10
0.0226,0.9774	-231.84
0.0124,0.9876	-231.50
0.0342,0.9658	-232.50
0.0134,0.9866	-231.51
0.0484,0.9516	-236.43
0.0379,0.9621	-232.73
0.0226,0.9774	-231.84
0.0118,0.9882	-231.49
0.0297,0.9703	-239.20
0.0196,0.9804	-231.71
0.0419,0.9581	-233.00
0.0380,0.9620	-235.97
0.0226,0.9774	-231.84
0.0112,0.9888	-231.49
0.0230,0.9770	-231.86
0.0230,0.9770	-235.61
0.0440,0.9560	-233.14
0.0316,0.9684	-232.34
0.0208,0.9792	-239.46
0.0109,0.9891	-231.49
0.0268,0.9732	-232.06
0.0226,0.9774	-235.61
0.0377,0.9623	-232.72
0.0272,0.9728	-232.08
0.0216,0.9784	-231.80
0.0097,0.9903	-231.49
0.0221,0.9779	-231.82
0.0334,0.9666	-232.44
0.0285,0.9715	-235.68
0.0291,0.9709	-232.19
0.0172,0.9828	-235.66
0.0111,0.9889	-231.49
0.0204,0.9796	-231.74
0.0348,0.9652	-235.86
0.0326,0.9674	-235.79
0.0288,0.9712	-235.69
0.0167,0.9833	-231.60
0.0111,0.9889	-231.49
0.0186,0.9814	-235.63
0.0348,0.9652	-235.86
0.0318,0.9682	-232.35
0.0275,0.9725	-235.66
0.0205,0.9795	-231.74
0.0137,0.9863	-240.07
0.0244,0.9756	-231.93
0.0284,0.9716	-232.15
0.0342,0.9658	-235.84
0.0327,0.9673	-235.79
0.0184,0.9816	-231.66
0.0139,0.9861	-240.04
0.0235,0.9765	-235.61
0.0293,0.9707	-235.70
0.0349,0.9651	-235.86
0.0331,0.9669	-235.80
0.0184,0.9816	-231.66
0.0098,0.9902	-231.49
0.0231,0.9769	-231.87
0.0339,0.9661	-235.83
0.0386,0.9614	-239.21
0.0285,0.9715	-232.16
0.0195,0.9805	-235.62
0.0101,0.9899	-231.49
0.0266,0.9734	-232.04
0.0284,0.9716	-239.21
0.0353,0.9647	-239.18
0.0336,0.9664	-235.82
0.0165,0.9835	-235.68
0.0078,0.9922	-231.54
0.0255,0.9745	-231.99
0.0290,0.9710	-232.18
0.0399,0.9601	-232.86
0.0322,0.9678	-235.77
0.0266,0.9734	-235.65
0.0109,0.9891	-231.49
0.0227,0.9773	-231.84
0.0267,0.9733	-232.05
0.0467,0.9533	-242.38
0.0359,0.9641	-232.60
0.0242,0.9758	-239.31
0.0106,0.9894	-231.49
0.0276,0.9724	-232.10
0.0283,0.9717	-232.14
0.0502,0.9498	-233.58
0.0406,0.9594	-232.91
0.0208,0.9792	-231.76
0.0096,0.9904	-231.50
0.0307,0.9693	-235.73
0.0217,0.9783	-231.80
0.0556,0.9444	-236.80
0.0435,0.9565	-236.20
0.0237,0.9763	-235.61
0.0093,0.9907	-231.50
0.0313,0.9687	-235.75
0.0242,0.9758	-235.62
0.0490,0.9510	-233.49
0.0515,0.9485	-239.50
0.0280,0.9720	-232.13
0.0090,0.9910	-236.21
0.0336,0.9664	-232.46
0.0324,0.9676	-232.38
0.0507,0.9493	-236.55
0.0438,0.9562	-236.21
0.0300,0.9700	-232.24
0.0113,0.9887	-235.97
0.0314,0.9686	-235.75
0.0304,0.9696	-232.26
0.0572,0.9428	-239.69
0.0438,0.9562	-236.21
0.0228,0.9772	-231.85
0.0099,0.9901	-236.09
0.0296,0.9704	-232.21
0.0290,0.9710	-235.69
0.0654,0.9346	-237.37
0.0471,0.9529	-239.37
0.0254,0.9746	-231.98
0.0092,0.9908	-231.50
0.0263,0.9737	-232.03
0.0281,0.9719	-232.13
0.0645,0.9355	-239.98
0.0414,0.9586	-236.11
0.0193,0.9807	-231.69
0.0106,0.9894	-231.49
0.0236,0.9764	-231.89
0.0236,0.9764	-231.89
0.0653,0.9347	-237.36
0.0386,0.9614	-235.99
0.0232,0.9768	-231.87
0.0099,0.9901	-231.49
0.0274,0.9726	-232.09
0.0234,0.9766	-231.88
0.0656,0.9344	-237.37
0.0461,0.9539	-239.35
0.0241,0.9759	-231.92
0.0111,0.9889	-231.49
0.0243,0.9757	-231.93
0.0285,0.9715	-232.15
0.0860,0.9140	-238.67
0.0444,0.9556	-233.17
0.0283,0.9717	-232.14
0.0087,0.9913	-231.51
0.0211,0.9789	-231.77
0.0292,0.9708	-232.19
0.1026,0.8974	-239.81
0.0434,0.9566	-236.20
0.0192,0.9808	-231.69
0.0101,0.9899	-231.49
0.0261,0.9739	-232.02
0.0284,0.9716	-235.68
0.0882,0.9118	-241.16
0.0471,0.9529	-233.36
0.0237,0.9763	-235.61
0.0112,0.9888	-231.49
0.0255,0.9745	-231.99
0.0277,0.9723	-232.11
0.0777,0.9223	-243.08
0.0512,0.9488	-233.65
0.0266,0.9734	-232.05
0.0099,0.9901	-231.49
0.0356,0.9644	-232.58
0.0323,0.9677	-239.18
0.0726,0.9274	-237.80
0.0547,0.9453	-233.90
0.0296,0.9704	-232.22
0.0103,0.9897	-236.06
0.0319,0.9681	-232.35
0.0354,0.9646	-239.18
0.0730,0.9270	-237.83
0.0725,0.9275	-237.80
0.0222,0.9778	-235.61
0.0094,0.9906	-231.50
0.0287,0.9713	-232.17
0.0256,0.9744	-235.63
0.0575,0.9425	-239.70
0.0792,0.9208	-240.68
0.0195,0.9805	-231.70
0.0090,0.9910	-231.50
0.0327,0.9673	-232.40
0.0311,0.9689	-232.30
0.0516,0.9484	-236.59
0.0701,0.9299	-237.65
0.0213,0.9787	-235.61
0.0088,0.9912	-231.51
0.0286,0.9714	-235.68
0.0246,0.9754	-242.98
0.0582,0.9418	-236.95
0.0540,0.9460	-233.85
0.0137,0.9863	-235.80
0.0081,0.9919	-236.34
0.0356,0.9644	-232.59
0.0171,0.9829	-231.61
0.0434,0.9566	-236.20
0.0515,0.9485	-239.50
0.0144,0.9856	-231.53
0.0090,0.9910	-231.50
0.0335,0.9665	-239.18
0.0141,0.9859	-244.27
0.0363,0.9637	-232.63
0.0509,0.9491	-236.56
0.0207,0.9793	-235.61
0.0071,0.9929	-231.57
0.0352,0.9648	-235.87
0.0134,0.9866	-235.82
0.0315,0.9685	-232.33
0.0669,0.9331	-234.82
0.0187,0.9813	-231.67
0.0079,0.9921	-231.53
0.0384,0.9616	-239.21
0.0162,0.9838	-231.58
0.0310,0.9690	-232.30
0.0756,0.9244	-237.99
0.0201,0.9799	-231.73
0.0099,0.9901	-236.10
0.0347,0.9653	-232.53
0.0187,0.9813	-231.67
0.0272,0.9728	-232.08
0.0778,0.9222	-243.08
0.0185,0.9815	-231.66
0.0084,0.9916	-231.52
0.0333,0.9667	-235.81
0.0157,0.9843	-231.57
0.0287,0.9713	-232.17
0.0713,0.9287	-237.73
0.0233,0.9767	-231.87
0.0093,0.9907	-231.50
0.0322,0.9678	-232.37
0.0129,0.9871	-231.51
0.0324,0.9676	-235.78
0.0608,0.9392	-237.09
0.0248,0.9752	-231.95
0.0099,0.9901	-231.49
0.0359,0.9641	-232.60
0.0139,0.9861	-235.79
0.0405,0.9595	-232.90
0.0608,0.9392	-237.09
0.0190,0.9810	-231.68
0.0106,0.9894	-231.49
0.0350,0.9650	-232.55
0.0158,0.9842	-231.57
0.0459,0.9541	-236.31
0.0623,0.9377	-239.89
0.0161,0.9839	-231.58
0.0109,0.9891	-231.49
0.0325,0.9675	-232.39
0.0162,0.9838	-231.58
0.0472,0.9528	-236.37
0.0580,0.9420	-239.72
0.0127,0.9873	-231.50
0.0107,0.9893	-236.01
0.0242,0.9758	-235.62
0.0162,0.9838	-231.58
0.0407,0.9593	-232.92
0.0702,0.9298	-242.82
0.0127,0.9873	-231.50
0.0107,0.9893	-236.01
0.0211,0.9789	-235.61
0.0137,0.9863	-231.52
0.0375,0.9625	-232.70
0.0745,0.9255	-240.44
0.0115,0.9885	-231.49
0.0123,0.9877	-231.50
0.0200,0.9800	-231.72
0.0116,0.9884	-231.49
0.0335,0.9665	-235.81
0.0664,0.9336	-242.71
0.0128,0.9872	-231.50
0.0104,0.9896	-231.49
0.0209,0.9791	-231.76
0.0107,0.9893	-231.49
0.0356,0.9644	-232.58
0.0623,0.9377	-239.89
0.0116,0.9884	-235.93
0.0094,0.9906	-231.50
0.0181,0.9819	-235.64
0.0107,0.9893	-231.49
0.0420,0.9580	-236.13
0.0667,0.9333	-242.72
0.0109,0.9891	-231.49
0.0093,0.9907	-231.50
0.0157,0.9843	-235.71
0.0111,0.9889	-231.49
0.0448,0.9552	-236.26
0.0642,0.9358	-239.97
0.0105,0.9895	-231.49
0.0088,0.9912	-231.51
0.0175,0.9825	-235.65
0.0094,0.9906	-231.50
0.0460,0.9540	-233.29
0.0599,0.9401	-242.55
0.0105,0.9895	-231.49
0.0104,0.9896	-231.49
0.0196,0.9804	-235.62
0.0092,0.9908	-231.50
0.0367,0.9633	-235.92
0.0567,0.9433	-236.87
0.0091,0.9909	-231.50
0.0097,0.9903	-231.49
0.0223,0.9777	-231.83
0.0080,0.9920	-231.53
0.0396,0.9604	-232.84
0.0679,0.9321	-237.51
0.0089,0.9911	-231.51
0.0105,0.9895	-231.49
0.0278,0.9722	-235.67
0.0066,0.9934	-236.62
0.0323,0.9677	-239.18
0.0604,0.9396	-237.07
0.0105,0.9895	-231.49
0.0128,0.9872	-244.54
0.0406,0.9594	-232.91
0.0069,0.9931	-231.57
0.0299,0.9701	-235.71
0.0589,0.9411	-236.99
0.0128,0.9872	-231.50
0.0153,0.9847	-235.72
0.0279,0.9721	-235.67
0.0062,0.9938	-236.70
0.0313,0.9687	-235.75
0.0587,0.9413	-236.98
0.0099,0.9901	-231.49
0.0175,0.9825	-231.63
0.0225,0.9775	-235.61
0.0072,0.9928	-231.56
0.0302,0.9698	-239.19
0.0660,0.9340	-234.75
0.0073,0.9927	-231.56
0.0136,0.9864	-231.52
0.0223,0.9777	-231.83
0.0077,0.9923	-231.54
0.0344,0.9656	-235.84
0.0586,0.9414	-239.75
0.0062,0.9938	-231.61
0.0140,0.9860	-231.53
0.0297,0.9703	-232.22
0.0085,0.9915	-231.52
0.0311,0.9689	-235.75
0.0579,0.9421	-239.72
0.0051,0.9949	-236.98
0.0135,0.9865	-231.52
0.0284,0.9716	-235.68
0.0091,0.9909	-231.50
0.0306,0.9694	-232.28
0.0611,0.9389	-239.84
0.0048,0.9952	-231.74
0.0118,0.9882	-235.92
0.0252,0.9748	-235.63
0.0097,0.9903	-231.49
0.0384,0.9616	-232.76
0.0515,0.9485	-236.59
0.0049,0.9951	-231.73
0.0136,0.9864	-231.52
0.0290,0.9710	-239.20
0.0110,0.9890	-235.99
0.0342,0.9658	-235.84
0.0558,0.9442	-239.64
0.0045,0.9955	-231.78
0.0134,0.9866	-235.81
0.0296,0.9704	-235.71
0.0085,0.9915	-231.52
0.0300,0.9700	-232.24
0.0416,0.9584	-239.25
0.0051,0.9949	-231.71
0.0120,0.9880	-231.49
0.0271,0.9729	-235.65
0.0077,0.9923	-236.39
0.0356,0.9644	-232.58
0.0395,0.9605	-236.03
0.0063,0.9937	-231.61
0.0121,0.9879	-235.90
0.0320,0.9680	-239.18
0.0077,0.9923	-231.54
0.0370,0.9630	-235.93
0.0369,0.9631	-232.67
0.0061,0.9939	-231.63
0.0122,0.9878	-235.89
0.0359,0.9641	-232.60
0.0058,0.9942	-231.65
0.0381,0.9619	-232.75
0.0365,0.9635	-232.64
0.0062,0.9938	-231.62
0.0121,0.9879	-231.50
0.0402,0.9598	-239.23
0.0056,0.9944	-231.67
0.0446,0.9554	-236.25
0.0283,0.9717	-232.14
0.0057,0.9943	-231.66
0.0131,0.9869	-231.51
0.0334,0.9666	-232.45
0.0080,0.9920	-231.53
0.0488,0.9512	-236.45
0.0258,0.9742	-235.63
0.0061,0.9939	-231.63
0.0135,0.9865	-235.81
0.0352,0.9648	-232.56
0.0075,0.9925	-231.55
0.0490,0.9510	-236.46
0.0247,0.9753	-231.95
0.0071,0.9929	-231.56
0.0145,0.9855	-231.54
0.0335,0.9665	-235.81
0.0065,0.9935	-231.60
0.0491,0.9509	-233.50
0.0283,0.9717	-232.14
0.0081,0.9919	-231.53
0.0143,0.9857	-231.53
0.0318,0.9682	-235.76
0.0097,0.9903	-231.49
0.0565,0.9435	-236.86
0.0302,0.9698	-235.72
0.0075,0.9925	-231.55
0.0167,0.9833	-235.67
0.0336,0.9664	-235.82
0.0098,0.9902	-231.49
0.0636,0.9364	-234.57
0.0275,0.9725	-232.10
0.0060,0.9940	-231.63
0.0207,0.9793	-231.75
0.0289,0.9711	-235.69
0.0084,0.9916	-231.52
0.0551,0.9449	-239.62
0.0305,0.9695	-235.73
0.0055,0.9945	-231.68
0.0226,0.9774	-235.61
0.0261,0.9739	-235.64
0.0100,0.9900	-231.49
0.0593,0.9407	-245.30
0.0326,0.9674	-235.79
0.0062,0.9938	-231.62
0.0231,0.9769	-231.86
0.0221,0.9779	-235.61
0.0092,0.9908	-231.50
0.0541,0.9459	-236.72
0.0298,0.9702	-235.71
0.0072,0.9928	-231.56
0.0236,0.9764	-231.89
0.0211,0.9789	-235.61
0.0082,0.9918	-231.52
0.0493,0.9507	-233.51
0.0297,0.9703	-232.22
0.0086,0.9914	-231.51
0.0190,0.9810	-231.68
0.0223,0.9777	-231.83
0.0088,0.9912	-231.51
0.0436,0.9564	-236.20
0.0288,0.9712	-232.17
0.0117,0.9883	-231.49
0.0167,0.9833	-235.67
0.0231,0.9769	-231.87
0.0067,0.9933	-231.59
0.0544,0.9456	-233.89
0.0309,0.9691	-235.74
0.0122,0.9878	-235.89
0.0190,0.9810	-235.63
0.0275,0.9725	-232.10
0.0066,0.9934	-231.59
0.0577,0.9423	-236.92
0.0270,0.9730	-235.65
0.0112,0.9888	-231.49
0.0184,0.9816	-231.66
0.0211,0.9789	-235.61
0.0062,0.9938	-236.68
0.0669,0.9331	-240.09
0.0238,0.9762	-235.61
0.0150,0.9850	-231.55
0.0197,0.9803	-231.71
0.0218,0.9782	-231.80
0.0057,0.9943	-231.66
0.0598,0.9402	-234.28
0.0273,0.9727	-232.09
0.0169,0.9831	-235.67
0.0163,0.9837	-231.59
0.0218,0.9782	-231.80
0.0050,0.9950	-231.72
0.0564,0.9436	-242.48
0.0267,0.9733	-235.65
0.0162,0.9838	-235.69
0.0150,0.9850	-235.73
0.0220,0.9780	-231.81
0.0059,0.9941	-231.64
0.0585,0.9415	-236.96
0.0260,0.9740	-235.64
0.0168,0.9832	-231.60
0.0176,0.9824	-231.63
0.0204,0.9796	-231.74
0.0054,0.9946	-231.68
0.0510,0.9490	-236.56
0.0232,0.9768	-235.61
0.0178,0.9822	-231.64
0.0169,0.9831	-235.67
0.0221,0.9779	-235.61
0.0053,0.9947	-231.69
0.0455,0.9545	-236.29
0.0278,0.9722	-232.11
0.0195,0.9805	-231.70
0.0174,0.9826	-231.62
0.0221,0.9779	-239.40
0.0060,0.9940	-231.64
0.0389,0.9611	-232.80
0.0267,0.9733	-232.05
0.0229,0.9771	-235.61
0.0144,0.9856	-231.53
0.0230,0.9770	-231.86
0.0068,0.9932	-231.58
0.0412,0.9588	-239.25
0.0322,0.9678	-232.37
0.0227,0.9773	-231.84
0.0142,0.9858	-240.01
0.0215,0.9785	-235.61
0.0058,0.9942	-231.65
0.0486,0.9514	-233.47
0.0282,0.9718	-232.14
0.0250,0.9750	-231.96
0.0117,0.9883	-235.93
0.0220,0.9780	-235.61
0.0069,0.9931	-231.58
0.0415,0.9585	-236.11
0.0371,0.9629	-232.68
0.0263,0.9737	-239.25
0.0106,0.9894	-231.49
0.0254,0.9746	-231.98
0.0078,0.9922	-231.54
0.0337,0.9663	-235.82
0.0362,0.9638	-232.62
0.0293,0.9707	-232.20
0.0128,0.9872	-231.50
0.0276,0.9724	-235.66
0.0076,0.9924	-236.42
0.0364,0.9636	-235.91
0.0373,0.9627	-235.94
0.0335,0.9665	-235.81
0.0166,0.9834	-231.59
0.0292,0.9708	-232.20
0.0070,0.9930	-231.57
0.0317,0.9683	-232.34
0.0483,0.9517	-236.42
0.0358,0.9642	-235.89
0.0178,0.9822	-231.64
0.0238,0.9762	-235.61
0.0056,0.9944	-231.66
0.0360,0.9640	-232.61
0.0495,0.9505	-233.53
0.0446,0.9554	-236.25
0.0186,0.9814	-231.67
0.0199,0.9801	-231.72
0.0066,0.9934	-231.59
0.0363,0.9637	-239.19
0.0451,0.9549	-233.22
0.0468,0.9532	-242.38
0.0163,0.9837	-235.69
0.0178,0.9822	-231.64
0.0062,0.9938	-231.62
0.0338,0.9662	-232.47
0.0365,0.9635	-232.64
0.0429,0.9571	-236.17
0.0204,0.9796	-231.74
0.0145,0.9855	-239.97
0.0065,0.9935	-231.60
0.0322,0.9678	-232.37
0.0345,0.9655	-235.84
0.0546,0.9454	-236.75
0.0246,0.9754	-235.62
0.0124,0.9876	-231.50
0.0065,0.9935	-236.64
0.0296,0.9704	-232.22
0.0261,0.9739	-235.64
0.0490,0.9510	-233.50
0.0241,0.9759	-231.91
0.0179,0.9821	-235.65
0.0069,0.9931	-231.58
0.0277,0.9723	-235.67
0.0279,0.9721	-232.12
0.0491,0.9509	-239.43
0.0213,0.9787	-239.43
0.0196,0.9804	-231.71
0.0062,0.9938	-231.62
0.0280,0.9720	-235.67
0.0302,0.9698	-235.72
0.0521,0.9479	-236.62
0.0223,0.9777	-239.39
0.0213,0.9787	-231.78
0.0059,0.9941	-236.76
0.0421,0.9579	-233.01
0.0291,0.9709	-232.19
0.0667,0.9333	-234.80
0.0311,0.9689	-232.31
0.0169,0.9831	-231.61
0.0051,0.9949	-231.72
0.0444,0.9556	-236.24
0.0250,0.9750	-235.63
0.0636,0.9364	-237.26
0.0256,0.9744	-239.27
0.0173,0.9827	-235.66
0.0055,0.9945	-231.68
0.0549,0.9451	-236.76
0.0314,0.9686	-235.75
0.0627,0.9373	-248.02
0.0255,0.9745	-235.63
0.0182,0.9818	-231.65
0.0052,0.9948	-231.70
0.0495,0.9505	-239.44
0.0345,0.9655	-232.51
0.0572,0.9428	-239.69
0.0242,0.9758	-231.92
0.0145,0.9855	-231.54
0.0049,0.9951	-231.73
0.0562,0.9438	-234.02
0.0267,0.9733	-235.65
0.0540,0.9460	-233.85
0.0240,0.9760	-239.32
0.0144,0.9856	-235.76
0.0051,0.9949	-231.71
0.0767,0.9233	-240.55
0.0246,0.9754	-235.62
0.0514,0.9486	-239.50
0.0205,0.9795	-231.74
0.0134,0.9866	-231.51
0.0054,0.9946	-231.69
0.0849,0.9151	-240.98
0.0304,0.9696	-235.73
0.0437,0.9563	-236.21
0.0275,0.9725	-232.09
0.0139,0.9861	-231.52
0.0055,0.9945	-231.67
0.0848,0.9152	-238.59
0.0331,0.9669	-239.18
0.0414,0.9586	-232.96
0.0243,0.9757	-231.93
0.0131,0.9869	-240.15
0.0047,0.9953	-231.76
0.0663,0.9337	-240.06
0.0419,0.9581	-236.13
0.0503,0.9497	-239.46
0.0287,0.9713	-232.16
0.0118,0.9882	-235.92
0.0047,0.9953	-231.76
0.0622,0.9378	-237.17
0.0382,0.9618	-235.98
0.0553,0.9447	-233.95
0.0281,0.9719	-232.13
0.0118,0.9882	-231.49
0.0060,0.9940	-231.63
0.0644,0.9356	-237.31
0.0375,0.9625	-232.71
0.0536,0.9464	-233.83
0.0269,0.9731	-232.07
0.0099,0.9901	-231.49
0.0066,0.9934	-236.60
0.0605,0.9395	-242.56
0.0424,0.9576	-236.15
0.0552,0.9448	-236.78
0.0243,0.9757	-231.92
0.0083,0.9917	-236.30
0.0064,0.9936	-231.60
0.0536,0.9464	-236.69
0.0369,0.9631	-232.67
0.0512,0.9488	-233.65
0.0226,0.9774	-239.38
0.0106,0.9894	-231.49
0.0059,0.9941	-231.64
0.0742,0.9258	-248.00
0.0335,0.9665	-232.45
0.0487,0.9513	-236.44
0.0325,0.9675	-235.78
0.0102,0.9898	-231.49
0.0073,0.9927	-231.56
0.0718,0.9282	-242.87
0.0298,0.9702	-235.71
0.0540,0.9460	-245.31
0.0319,0.9681	-239.18
0.0124,0.9876	-235.88
0.0090,0.9910	-231.50
0.0740,0.9260	-237.89
0.0246,0.9754	-231.94
0.0547,0.9453	-233.91
0.0357,0.9643	-232.59
0.0121,0.9879	-231.50
0.0096,0.9904	-236.13
0.0847,0.9153	-240.96
0.0262,0.9738	-232.03
0.0608,0.9392	-242.57
0.0317,0.9683	-235.76
0.0122,0.9878	-231.50
0.0127,0.9873	-235.86
0.0902,0.9098	-236.65
0.0220,0.9780	-231.81
0.0704,0.9296	-237.67
0.0321,0.9679	-232.37
0.0143,0.9857	-231.53
0.0118,0.9882	-231.49
0.0788,0.9212	-240.66
0.0213,0.9787	-235.61
0.0911,0.9089	-236.72
0.0341,0.9659	-232.49
0.0149,0.9851	-231.55
0.0164,0.9836	-231.59
0.0634,0.9366	-237.25
0.0185,0.9815	-231.66
0.0760,0.9240	-238.02
0.0337,0.9663	-235.82
0.0130,0.9870	-231.51
0.0140,0.9860	-235.78
0.0645,0.9355	-242.66
0.0203,0.9797	-235.61
0.0748,0.9252	-242.97
0.0351,0.9649	-232.55
0.0129,0.9871	-231.51
0.0113,0.9887	-231.49
0.0736,0.9264	-235.34
0.0202,0.9798	-231.73
0.0654,0.9346	-242.68
0.0462,0.9538	-236.32
0.0178,0.9822	-231.64
0.0133,0.9867	-231.51
0.0666,0.9334	-234.80
0.0262,0.9738	-232.02
0.0627,0.9373	-234.50
0.0426,0.9574	-233.05
0.0191,0.9809	-231.68
0.0133,0.9867	-231.51
0.0677,0.9323	-237.51
0.0244,0.9756	-231.93
0.0575,0.9425	-236.91
0.0448,0.9552	-236.26
0.0230,0.9770	-235.61
0.0134,0.9866	-235.81
0.0729,0.9271	-245.45
0.0269,0.9731	-239.24
0.0444,0.9556	-239.31
0.0472,0.9528	-236.37
0.0228,0.9772	-231.85
0.0137,0.9863	-231.52
0.0648,0.9352	-242.67
0.0255,0.9745	-235.63
0.0470,0.9530	-242.38
0.0353,0.9647	-242.49
0.0253,0.9747	-231.98
0.0123,0.9877	-235.88
0.0588,0.9412	-236.98
0.0346,0.9654	-235.85
0.0457,0.9543	-233.26
0.0318,0.9682	-232.35
0.0326,0.9674	-232.40
0.0105,0.9895	-231.49
0.0748,0.9252	-240.46
0.0264,0.9736	-235.64
0.0461,0.9539	-239.35
0.0290,0.9710	-232.18
0.0312,0.9688	-232.31
0.0110,0.9890	-240.48
0.0758,0.9242	-238.01
0.0223,0.9777	-235.61
0.0444,0.9556	-239.31
0.0295,0.9705	-242.69
0.0324,0.9676	-235.78
0.0097,0.9903	-231.50
0.0750,0.9250	-240.47
0.0247,0.9753	-235.62
0.0494,0.9506	-233.52
0.0265,0.9735	-232.04
0.0250,0.9750	-235.63
0.0107,0.9893	-231.49
0.0726,0.9274	-235.26
0.0317,0.9683	-235.76
0.0608,0.9392	-242.57
0.0276,0.9724	-235.66
0.0281,0.9719	-239.22
0.0117,0.9883	-235.93
0.0622,0.9378	-237.18
0.0398,0.9602	-236.04
0.0650,0.9350	-234.67
0.0295,0.9705	-235.70
0.0278,0.9722	-235.67
0.0131,0.9869	-231.51
0.0654,0.9346	-237.36
0.0433,0.9567	-233.09
0.0749,0.9251	-240.46
0.0274,0.9726	-235.66
0.0382,0.9618	-232.76
0.0148,0.9852	-231.54
0.0797,0.9203	-245.60
0.0371,0.9629	-235.94
0.0771,0.9229	-248.02
0.0296,0.9704	-232.22
0.0269,0.9731	-232.06
0.0157,0.9843	-231.57
0.0747,0.9253	-240.45
0.0346,0.9654	-232.52
0.0830,0.9170	-240.87
0.0259,0.9741	-242.89
0.0317,0.9683	-235.76
0.0142,0.9858	-235.77
0.1027,0.8973	-241.98
0.0407,0.9593	-232.92
0.0839,0.9161	-245.70
0.0186,0.9814	-235.63
0.0249,0.9751	-231.96
0.0188,0.9812	-235.63
0.0958,0.9042	-241.58
0.0402,0.9598	-232.89
0.0890,0.9110	-245.85
0.0201,0.9799	-231.73
0.0261,0.9739	-232.02
0.0200,0.9800	-235.62
0.0757,0.9243	-240.50
0.0318,0.9682	-235.76
0.0813,0.9187	-243.21
0.0181,0.9819	-235.64
0.0276,0.9724	-232.10
0.0167,0.9833	-231.60
0.0695,0.9305	-237.61
0.0323,0.9677	-239.18
0.0936,0.9064	-239.19
0.0225,0.9775	-231.84
0.0283,0.9717	-235.68
0.0182,0.9818	-231.65
0.0536,0.9464	-233.82
0.0363,0.9637	-235.91
0.0938,0.9062	-241.47
0.0171,0.9829	-231.61
0.0350,0.9650	-232.54
0.0202,0.9798	-231.73
0.0476,0.9524	-236.39
0.0328,0.9672	-232.41
0.0923,0.9077	-239.10
0.0155,0.9845	-231.56
0.0333,0.9667	-232.44
0.0237,0.9763	-231.90
0.0542,0.9458	-233.87
0.0335,0.9665	-232.45
0.0741,0.9259	-235.37
0.0118,0.9882	-231.49
0.0384,0.9616	-235.98
0.0281,0.9719	-239.22
0.0382,0.9618	-235.98
0.0348,0.9652	-232.54
0.0715,0.9285	-237.74
0.0121,0.9879	-231.50
0.0299,0.9701	-232.24
0.0312,0.9688	-232.31
0.0316,0.9684	-235.76
0.0379,0.9621	-239.20
0.0692,0.9308	-247.99
0.0129,0.9871	-231.51
0.0299,0.9701	-232.24
0.0279,0.9721	-239.22
0.0317,0.9683	-239.18
0.0478,0.9522	-236.40
0.0698,0.9302	-240.22
0.0156,0.9844	-231.57
0.0234,0.9766	-235.61
0.0286,0.9714	-232.16
0.0344,0.9656	-235.84
0.0485,0.9515	-233.46
0.0708,0.9292	-237.69
0.0157,0.9843	-231.57
0.0233,0.9767	-231.88
0.0310,0.9690	-235.74
0.0313,0.9687	-232.32
0.0386,0.9614	-239.21
0.0763,0.9237	-240.53
0.0116,0.9884	-231.49
0.0231,0.9769	-231.86
0.0240,0.9760	-231.91
0.0312,0.9688	-235.75
0.0410,0.9590	-239.24
0.0778,0.9222	-240.61
0.0172,0.9828	-231.62
0.0241,0.9759	-231.91
0.0207,0.9793	-231.75
0.0350,0.9650	-242.50
0.0485,0.9515	-233.46
0.0823,0.9177	-238.43
0.0147,0.9853	-231.54
0.0258,0.9742	-232.01
0.0201,0.9799	-231.73
0.0428,0.9572	-233.06
0.0533,0.9467	-236.68
0.0769,0.9231	-238.08
0.0163,0.9837	-235.69
0.0195,0.9805	-231.70
0.0291,0.9709	-235.69
0.0302,0.9698	-235.72
0.0539,0.9461	-236.71
0.0736,0.9264	-240.40
0.0136,0.9864	-231.52
0.0233,0.9767	-231.87
0.0232,0.9768	-235.61
0.0310,0.9690	-235.74
0.0485,0.9515	-236.44
0.0818,0.9182	-238.39
0.0114,0.9886	-235.95
0.0263,0.9737	-232.03
0.0245,0.9755	-235.62
0.0393,0.9607	-239.22
0.0494,0.9506	-236.48
0.0896,0.9104	-241.23
0.0115,0.9885	-235.95
0.0220,0.9780	-231.81
0.0217,0.9783	-235.61
0.0475,0.9525	-245.38
0.0503,0.9497	-239.46
0.0736,0.9264	-240.40
0.0124,0.9876	-231.50
0.0254,0.9746	-235.63
0.0260,0.9740	-239.26
0.0505,0.9495	-236.54
0.0435,0.9565	-236.20
0.0677,0.9323	-240.12
0.0137,0.9863	-231.52
0.0279,0.9721	-235.67
0.0225,0.9775	-231.84
0.0623,0.9377	-239.89
0.0500,0.9500	-236.51
0.0623,0.9377	-234.47
0.0120,0.9880	-231.50
0.0248,0.9752	-235.62
0.0244,0.9756	-235.62
0.0557,0.9443	-236.81
0.0546,0.9454	-236.75
0.0717,0.9283	-240.31
0.0115,0.9885	-231.49
0.0220,0.9780	-231.81
0.0232,0.9768	-235.61
0.0686,0.9314	-240.17
0.0574,0.9426	-234.10
0.0689,0.9311	-242.78
0.0111,0.9889	-231.49
0.0265,0.9735	-232.04
0.0215,0.9785	-235.61
0.0503,0.9497	-239.46
0.0511,0.9489	-233.64
0.0692,0.9308	-237.59
0.0108,0.9892	-231.49
0.0301,0.9699	-232.24
0.0226,0.9774	-231.84
0.0562,0.9438	-234.02
0.0508,0.9492	-236.55
0.0701,0.9299	-240.24
0.0111,0.9889	-231.49
0.0280,0.9720	-232.12
0.0237,0.9763	-231.90
0.0593,0.9407	-239.77
0.0490,0.9510	-236.46
0.0600,0.9400	-239.80
0.0112,0.9888	-235.97
0.0276,0.9724	-232.10
0.0243,0.9757	-239.31
0.0500,0.9500	-236.51
0.0528,0.9472	-233.77
0.0593,0.9407	-242.54
0.0118,0.9882	-231.49
0.0329,0.9671	-235.79
0.0266,0.9734	-235.65
0.0436,0.9564	-236.20
0.0616,0.9384	-234.42
0.0486,0.9514	-236.44
0.0176,0.9824	-231.63
0.0344,0.9656	-232.50
0.0294,0.9706	-232.20
0.0474,0.9526	-236.38
0.0633,0.9367	-237.24
0.0524,0.9476	-236.64
0.0180,0.9820	-231.64
0.0336,0.9664	-232.46
0.0325,0.9675	-235.78
0.0571,0.9429	-239.69
0.0533,0.9467	-236.68
0.0431,0.9569	-236.18
0.0190,0.9810	-235.63
0.0362,0.9638	-235.91
0.0293,0.9707	-232.20
0.0847,0.9153	-238.59
0.0491,0.9509	-236.47
0.0468,0.9532	-233.34
0.0178,0.9822	-239.66
0.0328,0.9672	-235.79
0.0330,0.9670	-235.80
0.0810,0.9190	-240.77
0.0396,0.9604	-232.85
0.0366,0.9634	-235.92
0.0208,0.9792	-235.61
0.0435,0.9565	-236.20
0.0367,0.9633	-235.92
0.0791,0.9209	-243.13
0.0369,0.9631	-235.93
0.0493,0.9507	-236.47
0.0199,0.9801	-231.72
0.0402,0.9598	-239.23
0.0365,0.9635	-235.92
0.0634,0.9366	-234.55
0.0359,0.9641	-232.60
0.0361,0.9639	-235.90
0.0219,0.9781	-231.81
0.0324,0.9676	-232.39
0.0293,0.9707	-232.20
0.0909,0.9091	-239.00
0.0367,0.9633	-242.46
0.0397,0.9603	-239.22
0.0257,0.9743	-235.63
0.0325,0.9675	-235.78
0.0319,0.9681	-232.35
0.0691,0.9309	-240.19
0.0307,0.9693	-232.28
0.0355,0.9645	-232.58
0.0284,0.9716	-232.15
0.0298,0.9702	-232.23
0.0235,0.9765	-231.89
0.0767,0.9233	-235.57
0.0421,0.9579	-242.39
0.0287,0.9713	-232.16
0.0256,0.9744	-231.99
0.0280,0.9720	-232.12
0.0257,0.9743	-232.00
0.0708,0.9292	-240.27
0.0436,0.9564	-236.20
0.0246,0.9754	-235.62
0.0258,0.9742	-235.63
0.0293,0.9707	-232.20
0.0282,0.9718	-232.13
0.0460,0.9540	-236.32
0.0415,0.9585	-236.11
0.0196,0.9804	-231.71
0.0332,0.9668	-232.43
0.0319,0.9681	-232.35
0.0308,0.9692	-232.29
0.0468,0.9532	-236.35
0.0350,0.9650	-239.18
0.0205,0.9795	-239.48
0.0294,0.9706	-235.70
0.0257,0.9743	-235.63
0.0301,0.9699	-235.72
0.0411,0.9589	-236.09
0.0361,0.9639	-242.47
0.0176,0.9824	-239.67
0.0333,0.9667	-232.44
0.0216,0.9784	-235.61
0.0247,0.9753	-231.95
0.0402,0.9598	-239.23
0.0335,0.9665	-232.45
0.0215,0.9785	-231.79
0.0341,0.9659	-235.83
0.0173,0.9827	-231.62
0.0264,0.9736	-235.64
0.0393,0.9607	-232.83
0.0415,0.9585	-232.97
0.0239,0.9761	-235.61
0.0365,0.9635	-239.19
0.0173,0.9827	-231.62
0.0204,0.9796	-231.74
0.0385,0.9615	-239.21
0.0449,0.9551	-242.38
0.0210,0.9790	-235.61
0.0296,0.9704	-235.71
0.0181,0.9819	-231.65
0.0232,0.9768	-243.09
0.0350,0.9650	-232.55
0.0400,0.9600	-239.23
0.0228,0.9772	-231.85
0.0286,0.9714	-239.21
0.0188,0.9812	-231.67
0.0224,0.9776	-239.39
0.0338,0.9662	-232.47
0.0468,0.9532	-233.33
0.0228,0.9772	-231.85
0.0294,0.9706	-232.20
0.0167,0.9833	-231.60
0.0195,0.9805	-231.70
0.0443,0.9557	-236.24
0.0424,0.9576	-236.15
0.0265,0.9735	-232.04
0.0265,0.9735	-235.65
0.0161,0.9839	-235.69
0.0197,0.9803	-235.62
0.0494,0.9506	-236.48
0.0377,0.9623	-232.72
0.0304,0.9696	-235.72
0.0322,0.9678	-232.37
0.0207,0.9793	-231.75
0.0165,0.9835	-231.59
0.0459,0.9541	-233.27
0.0275,0.9725	-235.66
0.0269,0.9731	-232.07
0.0332,0.9668	-235.80
0.0184,0.9816	-235.64
0.0161,0.9839	-231.58
0.0478,0.9522	-236.40
0.0297,0.9703	-232.22
0.0284,0.9716	-232.15
0.0330,0.9670	-232.42
0.0252,0.9748	-231.97
0.0182,0.9818	-231.65
0.0517,0.9483	-236.60
0.0327,0.9673	-232.40
0.0253,0.9747	-231.98
0.0306,0.9694	-242.64
0.0247,0.9753	-239.30
0.0222,0.9778	-231.82
0.0651,0.9349	-242.68
0.0287,0.9713	-232.17
0.0306,0.9694	-242.64
0.0284,0.9716	-232.15
0.0281,0.9719	-232.13
0.0217,0.9783	-231.80
0.0636,0.9364	-237.26
0.0290,0.9710	-232.18
0.0370,0.9630	-242.45
0.0302,0.9698	-232.25
0.0311,0.9689	-235.74
0.0243,0.9757	-231.92
0.0654,0.9346	-242.68
0.0241,0.9759	-231.91
0.0313,0.9687	-242.61
0.0384,0.9616	-232.77
0.0340,0.9660	-235.83
0.0238,0.9762	-231.90
0.0848,0.9152	-238.59
0.0240,0.9760	-235.62
0.0310,0.9690	-232.30
0.0393,0.9607	-236.02
0.0346,0.9654	-242.51
0.0216,0.9784	-231.79
0.0658,0.9342	-240.04
0.0191,0.9809	-235.62
0.0295,0.9705	-235.70
0.0371,0.9629	-232.68
0.0401,0.9599	-232.88
0.0208,0.9792	-231.76
0.0660,0.9340	-237.40
0.0187,0.9813	-231.67
0.0290,0.9710	-232.18
0.0383,0.9617	-235.98
0.0359,0.9641	-235.89
0.0171,0.9829	-231.61
0.0799,0.9201	-240.71
0.0204,0.9796	-235.61
0.0256,0.9744	-239.27
0.0389,0.9611	-236.00
0.0469,0.9531	-236.36
0.0169,0.9831	-231.61
0.0654,0.9346	-240.02
0.0192,0.9808	-231.69
0.0317,0.9683	-232.34
0.0374,0.9626	-235.95
0.0464,0.9536	-236.33
0.0153,0.9847	-235.72
0.0599,0.9401	-234.29
0.0232,0.9768	-231.87
0.0310,0.9690	-232.30
0.0400,0.9600	-232.87
0.0350,0.9650	-232.54
0.0174,0.9826	-231.62
0.0712,0.9288	-242.85
0.0215,0.9785	-231.79
0.0259,0.9741	-239.26
0.0481,0.9519	-233.43
0.0314,0.9686	-235.75
0.0178,0.9822	-231.64
0.0761,0.9239	-238.03
0.0213,0.9787	-231.78
