#isoforms=['ENSG00000186575.SE.4.A.up_ENSG00000186575.SE.4.A.SE1_ENSG00000186575.SE.4.A.dn','ENSG00000186575.SE.4.B.up_ENSG00000186575.SE.4.B.dn']	exon_lens=('ENSG00000186575.SE.4.A.up',128),('ENSG00000186575.SE.4.A.SE1',163),('ENSG00000186575.SE.4.A.dn',3847),('ENSG00000186575.SE.4.B.up',128),('ENSG00000186575.SE.4.B.dn',194)	iters=5000	burn_in=500	lag=10	percent_accept=94.76	proposal_type=drift	counts=(0,0):5,(1,0):41,(1,1):18	assigned_counts=0:45,1:14	chrom=chr22	strand=+	mRNA_starts=29678196,29678196	mRNA_ends=29698598,29694945
sampled_psi	log_score
0.6693,0.3307	-497.64
0.1448,0.8552	-480.57
0.1669,0.8331	-488.78
0.2160,0.7840	-485.78
0.2668,0.7332	-486.75
0.2183,0.7817	-487.08
0.6918,0.3082	-496.56
0.1664,0.8336	-488.79
0.1919,0.8081	-486.98
0.2060,0.7940	-484.31
0.2394,0.7606	-485.01
0.2391,0.7609	-489.63
0.6858,0.3142	-497.25
0.1628,0.8372	-485.60
0.1665,0.8335	-487.17
0.1813,0.8187	-479.49
0.2371,0.7629	-486.12
0.2027,0.7973	-482.89
0.6728,0.3272	-494.84
0.1751,0.8249	-485.52
0.1342,0.8658	-488.07
0.1731,0.8269	-482.40
0.2249,0.7751	-487.14
0.1866,0.8134	-487.00
0.6693,0.3307	-499.05
0.1399,0.8601	-480.57
0.1635,0.8365	-485.59
0.1633,0.8367	-482.32
0.2509,0.7491	-488.58
0.1845,0.8155	-485.52
0.6111,0.3889	-495.97
0.1245,0.8755	-482.70
0.1515,0.8485	-480.58
0.1494,0.8506	-484.05
0.2437,0.7563	-489.64
0.2053,0.7947	-491.06
0.5990,0.4010	-495.80
0.1405,0.8595	-480.57
0.1723,0.8277	-487.10
0.1189,0.8811	-484.88
0.2172,0.7828	-484.51
0.1975,0.8025	-484.18
0.5321,0.4679	-495.09
0.1285,0.8715	-480.68
0.1469,0.8531	-484.09
0.1069,0.8931	-481.32
0.2037,0.7963	-485.63
0.1823,0.8177	-484.01
0.5417,0.4583	-495.57
0.1514,0.8486	-484.03
0.1523,0.8477	-482.31
0.1176,0.8824	-480.91
0.1976,0.8024	-482.78
0.1698,0.8302	-483.96
0.5327,0.4673	-495.23
0.1650,0.8350	-480.71
0.1639,0.8361	-482.33
0.1450,0.8550	-480.57
0.2106,0.7894	-487.03
0.1925,0.8075	-486.98
0.5580,0.4420	-495.49
0.1803,0.8197	-484.00
0.1532,0.8468	-484.01
0.1351,0.8649	-480.60
0.2292,0.7708	-485.98
0.1839,0.8161	-482.54
0.4854,0.5146	-494.58
0.1917,0.8083	-484.11
0.1410,0.8590	-485.99
0.1401,0.8599	-482.39
0.2058,0.7942	-485.66
0.1835,0.8165	-484.02
0.4506,0.5494	-492.89
0.1858,0.8142	-487.00
0.1520,0.8480	-480.59
0.1578,0.8422	-480.63
0.1936,0.8064	-485.56
0.2452,0.7548	-486.27
0.4312,0.5688	-493.07
0.2022,0.7978	-484.25
0.1590,0.8410	-487.30
0.1526,0.8474	-482.30
0.1939,0.8061	-482.71
0.2061,0.7939	-484.31
0.4322,0.5678	-493.64
0.2088,0.7912	-483.02
0.1807,0.8193	-484.00
0.1744,0.8256	-482.41
0.2103,0.7897	-489.67
0.2001,0.7999	-484.22
0.4557,0.5443	-494.31
0.1631,0.8369	-480.69
0.1746,0.8254	-483.97
0.1836,0.8164	-484.03
0.1979,0.8021	-482.79
0.1655,0.8345	-479.10
0.4560,0.5440	-493.43
0.1507,0.8493	-482.31
0.1841,0.8159	-482.54
0.1746,0.8254	-479.31
0.1839,0.8161	-487.01
0.1611,0.8389	-480.66
0.4188,0.5812	-492.82
0.1805,0.8195	-482.49
0.1811,0.8189	-482.50
0.1960,0.8040	-482.75
0.1911,0.8089	-485.54
0.2021,0.7979	-488.37
0.3591,0.6409	-488.27
0.1410,0.8590	-484.18
0.2145,0.7855	-489.65
0.2300,0.7700	-485.99
0.1636,0.8364	-487.22
0.1539,0.8461	-484.01
0.3142,0.6858	-489.59
0.1098,0.8902	-483.28
0.2368,0.7632	-488.45
0.2035,0.7965	-488.36
0.1697,0.8303	-482.37
0.1365,0.8635	-484.28
0.3379,0.6621	-489.42
0.1090,0.8910	-487.53
0.2310,0.7690	-484.80
0.1878,0.8122	-484.06
0.1797,0.8203	-480.96
0.1374,0.8626	-482.42
0.2908,0.7092	-489.15
0.0963,0.9037	-479.69
0.1826,0.8174	-484.02
0.2071,0.7929	-482.99
0.2119,0.7881	-483.10
0.1227,0.8773	-488.65
0.2647,0.7353	-486.70
0.1065,0.8935	-485.59
0.1934,0.8066	-485.55
0.1867,0.8133	-484.05
0.1776,0.8224	-485.52
0.1208,0.8792	-484.80
0.2953,0.7047	-489.23
0.1024,0.8976	-488.06
0.2468,0.7532	-488.54
0.1644,0.8356	-488.83
0.1764,0.8236	-485.52
0.1460,0.8540	-482.33
0.2769,0.7231	-489.88
0.0814,0.9186	-483.29
0.2556,0.7444	-484.36
0.1545,0.8455	-482.30
0.1871,0.8129	-484.06
0.1367,0.8633	-480.59
0.1945,0.8055	-485.56
0.1024,0.8976	-481.54
0.2460,0.7540	-485.17
0.1376,0.8624	-486.09
0.1934,0.8066	-485.55
0.1604,0.8396	-487.28
0.2039,0.7961	-487.00
0.1073,0.8927	-485.54
0.2509,0.7491	-487.49
0.1374,0.8626	-484.26
0.1993,0.8007	-482.82
0.1833,0.8167	-484.02
0.1905,0.8095	-485.54
0.1136,0.8864	-481.04
0.2342,0.7658	-484.88
0.1454,0.8546	-482.34
0.1616,0.8384	-480.67
0.1964,0.8036	-484.16
0.1830,0.8170	-484.02
0.1055,0.8945	-485.66
0.2115,0.7885	-484.40
0.1417,0.8583	-487.77
0.1571,0.8429	-483.98
0.1833,0.8167	-485.52
0.1422,0.8578	-484.16
0.1189,0.8811	-480.88
0.2566,0.7434	-486.52
0.1389,0.8611	-482.40
0.1715,0.8285	-482.38
0.2271,0.7729	-485.94
0.1534,0.8466	-484.01
0.1223,0.8777	-486.71
0.2426,0.7574	-487.36
0.1050,0.8950	-485.70
0.1725,0.8275	-487.10
0.2298,0.7702	-487.20
0.1526,0.8474	-480.59
0.1354,0.8646	-488.02
0.2856,0.7144	-492.73
0.1194,0.8806	-484.86
0.1532,0.8468	-480.59
0.2900,0.7100	-490.92
0.1575,0.8425	-482.30
0.1335,0.8665	-484.36
0.2626,0.7374	-484.59
0.1033,0.8967	-485.82
0.1562,0.8438	-478.93
0.2756,0.7244	-487.93
0.1703,0.8297	-480.79
0.1324,0.8676	-486.27
0.2132,0.7868	-487.05
0.1171,0.8829	-480.93
0.1570,0.8430	-485.66
0.2189,0.7811	-488.36
0.2013,0.7987	-485.61
0.1409,0.8591	-486.00
0.1879,0.8121	-485.53
0.1213,0.8787	-482.80
0.1471,0.8529	-480.57
0.2199,0.7801	-483.30
0.1777,0.8223	-488.58
0.1313,0.8687	-480.64
0.1642,0.8358	-480.70
0.1209,0.8791	-478.84
0.1301,0.8699	-480.66
0.2303,0.7697	-486.00
0.1718,0.8282	-485.53
0.1295,0.8705	-486.38
0.1467,0.8533	-480.57
0.1194,0.8806	-484.86
0.1371,0.8629	-484.27
0.1942,0.8058	-486.98
0.1818,0.8182	-484.01
0.1347,0.8653	-480.61
0.1484,0.8516	-485.81
0.1062,0.8938	-479.22
0.1707,0.8293	-483.96
0.1883,0.8117	-482.61
0.2128,0.7872	-487.04
0.1316,0.8684	-482.52
0.1576,0.8424	-483.98
0.1364,0.8636	-478.75
0.1638,0.8362	-482.33
0.1759,0.8241	-480.89
0.2731,0.7269	-487.88
0.1356,0.8644	-478.75
0.1714,0.8286	-480.81
0.1229,0.8771	-478.82
0.1720,0.8280	-483.96
0.1467,0.8533	-478.81
0.2440,0.7560	-486.25
0.1344,0.8656	-482.47
0.1770,0.8230	-485.52
0.1345,0.8655	-480.61
0.1599,0.8401	-485.63
0.1938,0.8062	-482.71
0.2254,0.7746	-488.38
0.1489,0.8511	-482.32
0.1731,0.8269	-480.84
0.1272,0.8728	-480.70
0.1497,0.8503	-482.31
0.1756,0.8244	-483.97
0.2601,0.7399	-491.82
0.1596,0.8404	-483.97
0.1471,0.8529	-484.08
0.1283,0.8717	-484.52
0.1730,0.8270	-482.40
0.1704,0.8296	-488.70
0.2282,0.7718	-487.18
0.1640,0.8360	-482.33
0.1618,0.8382	-482.32
0.1564,0.8436	-478.93
0.1722,0.8278	-480.82
0.1739,0.8261	-483.97
0.2262,0.7738	-488.39
0.1258,0.8742	-484.60
0.1694,0.8306	-482.37
0.1468,0.8532	-487.61
0.1841,0.8159	-487.01
0.1636,0.8364	-480.69
0.2227,0.7773	-489.62
0.1258,0.8742	-486.54
0.1558,0.8442	-485.68
0.1937,0.8063	-485.56
0.2098,0.7902	-487.03
0.1694,0.8306	-487.13
0.2355,0.7645	-488.44
0.1097,0.8903	-481.19
0.1823,0.8177	-482.51
0.1966,0.8034	-486.98
0.1817,0.8183	-481.00
0.1618,0.8382	-483.96
0.2168,0.7832	-488.36
0.1072,0.8928	-489.78
0.1987,0.8013	-486.99
0.1675,0.8325	-482.35
0.2022,0.7978	-485.62
0.1721,0.8279	-483.96
0.1638,0.8362	-485.59
0.1248,0.8752	-488.53
0.1577,0.8423	-487.33
0.1351,0.8649	-486.17
0.1987,0.8013	-486.99
0.1740,0.8260	-485.52
0.2053,0.7947	-484.30
0.1304,0.8696	-482.55
0.1744,0.8256	-482.41
0.1562,0.8438	-482.30
0.2080,0.7920	-484.34
0.1340,0.8660	-486.21
0.1712,0.8288	-483.96
0.1485,0.8515	-482.32
0.1884,0.8116	-482.61
0.1543,0.8457	-482.30
0.1698,0.8302	-487.13
0.1512,0.8488	-484.03
0.1718,0.8282	-485.53
0.1537,0.8463	-485.72
0.1670,0.8330	-480.74
0.1634,0.8366	-483.96
0.1775,0.8225	-483.98
0.1589,0.8411	-483.97
0.1940,0.8060	-489.83
0.1242,0.8758	-482.71
0.1924,0.8076	-485.55
0.1984,0.8016	-484.19
0.1883,0.8117	-484.07
0.1496,0.8504	-482.31
0.1751,0.8249	-482.42
0.1438,0.8562	-487.70
0.2209,0.7791	-482.07
0.1989,0.8011	-486.99
0.1966,0.8034	-488.39
0.1564,0.8436	-480.62
0.2272,0.7728	-484.72
0.1368,0.8632	-480.59
0.2710,0.7290	-485.86
0.1932,0.8068	-482.69
0.1673,0.8327	-483.95
0.1462,0.8538	-487.63
0.2037,0.7963	-485.63
0.1122,0.8878	-485.23
0.2865,0.7135	-486.34
0.2025,0.7975	-484.25
0.1756,0.8244	-485.52
0.1471,0.8529	-485.84
0.2073,0.7927	-487.01
0.1217,0.8783	-482.78
0.3064,0.6936	-486.98
0.1586,0.8414	-485.64
0.1954,0.8046	-485.57
0.1791,0.8209	-483.99
0.1885,0.8115	-486.99
0.1281,0.8719	-480.68
0.3634,0.6366	-493.50
0.1832,0.8168	-485.52
0.1932,0.8068	-482.70
0.1985,0.8015	-484.19
0.1865,0.8135	-488.47
0.1399,0.8601	-484.21
0.4041,0.5959	-492.53
0.1642,0.8358	-483.96
0.2103,0.7897	-489.67
0.1687,0.8313	-485.55
0.1480,0.8520	-484.07
0.1399,0.8601	-482.39
0.3582,0.6418	-491.15
0.1184,0.8816	-480.89
0.2564,0.7436	-484.38
0.1830,0.8170	-484.02
0.1935,0.8065	-484.13
0.1337,0.8663	-480.62
0.3366,0.6634	-490.06
0.1228,0.8772	-482.75
0.2804,0.7196	-485.20
0.2196,0.7804	-490.90
0.1832,0.8168	-482.53
0.1270,0.8730	-488.41
0.3247,0.6753	-489.80
0.1627,0.8373	-479.04
0.2647,0.7353	-485.68
0.2117,0.7883	-481.78
0.1598,0.8402	-485.63
0.1747,0.8253	-483.97
0.3074,0.6926	-487.83
0.1630,0.8370	-485.59
0.2135,0.7865	-487.05
0.2283,0.7717	-488.40
0.1564,0.8436	-483.99
0.1974,0.8026	-482.78
0.3092,0.6908	-493.51
0.1581,0.8419	-482.31
0.2758,0.7242	-489.87
0.2281,0.7719	-489.62
0.1819,0.8181	-485.52
0.1807,0.8193	-485.51
0.2437,0.7563	-485.11
0.1656,0.8344	-483.95
0.2518,0.7482	-488.59
0.2525,0.7475	-488.60
0.1792,0.8208	-483.99
0.1953,0.8047	-488.40
0.2184,0.7816	-483.26
0.1240,0.8760	-480.76
0.2616,0.7384	-486.63
0.3131,0.6869	-486.42
0.1538,0.8462	-480.60
0.1734,0.8266	-490.21
0.1753,0.8247	-480.88
0.1429,0.8571	-482.36
0.2530,0.7470	-488.60
0.3284,0.6716	-488.45
0.1585,0.8415	-482.31
0.1627,0.8373	-479.04
0.1973,0.8027	-481.37
0.1431,0.8569	-482.36
0.2532,0.7468	-489.69
0.2991,0.7009	-489.30
0.1454,0.8546	-484.11
0.1598,0.8402	-482.31
0.1824,0.8176	-488.52
0.1441,0.8559	-485.91
0.2138,0.7862	-485.75
0.2774,0.7226	-487.97
0.1442,0.8558	-482.35
0.1585,0.8415	-485.64
0.1727,0.8273	-483.96
0.1600,0.8400	-483.97
0.2066,0.7934	-484.32
0.2440,0.7560	-488.51
0.1669,0.8331	-483.95
0.1422,0.8578	-482.37
0.1917,0.8083	-485.55
0.1789,0.8211	-483.99
0.1568,0.8432	-482.30
0.2819,0.7181	-487.13
0.1788,0.8212	-485.52
0.1192,0.8808	-480.87
0.2202,0.7798	-485.84
0.1540,0.8460	-485.71
0.1580,0.8420	-482.30
0.2423,0.7577	-486.22
0.1970,0.8030	-489.79
0.1273,0.8727	-484.55
0.2131,0.7869	-484.43
0.1628,0.8372	-485.60
0.1501,0.8499	-487.51
0.2600,0.7400	-491.82
0.1715,0.8285	-487.11
0.1288,0.8712	-482.59
0.1778,0.8222	-487.05
0.1590,0.8410	-483.97
0.1348,0.8652	-486.18
0.2927,0.7073	-487.42
0.2037,0.7963	-482.91
0.1102,0.8898	-481.17
0.1678,0.8322	-485.55
0.1469,0.8531	-487.60
0.0998,0.9002	-481.70
0.2830,0.7170	-490.88
0.1882,0.8118	-485.53
0.1186,0.8814	-478.88
0.1433,0.8567	-485.93
0.1332,0.8668	-486.24
0.1271,0.8729	-478.77
0.2294,0.7706	-487.19
0.1318,0.8682	-482.52
0.1170,0.8830	-480.93
0.1449,0.8551	-478.79
0.1385,0.8615	-486.06
0.1517,0.8483	-484.03
0.2019,0.7981	-484.24
0.1297,0.8703	-482.57
0.1272,0.8728	-484.55
0.1677,0.8323	-482.35
0.1514,0.8486	-482.31
0.1705,0.8295	-480.79
0.2181,0.7819	-487.08
0.1641,0.8359	-483.96
0.1226,0.8774	-486.69
0.1867,0.8133	-484.05
0.1229,0.8771	-482.75
0.1742,0.8258	-479.30
0.1839,0.8161	-484.03
0.1719,0.8281	-483.96
0.1128,0.8872	-479.01
0.1743,0.8257	-485.52
0.1092,0.8908	-485.41
0.1944,0.8056	-484.14
0.1821,0.8179	-484.01
0.1547,0.8453	-480.60
0.1061,0.8939	-479.22
0.1477,0.8523	-484.07
0.1141,0.8859	-481.03
0.1977,0.8023	-486.98
0.1654,0.8346	-480.72
0.1538,0.8462	-485.71
0.1057,0.8943	-485.65
0.1525,0.8475	-487.45
0.1007,0.8993	-486.02
0.1702,0.8298	-487.12
0.1939,0.8061	-484.13
0.1572,0.8428	-483.98
0.1102,0.8898	-485.35
0.1380,0.8620	-486.08
0.1097,0.8903	-485.38
0.2144,0.7856	-484.46
0.2076,0.7924	-483.00
0.1966,0.8034	-489.80
0.1310,0.8690	-484.43
0.1568,0.8432	-480.62
0.1320,0.8680	-480.63
0.2256,0.7744	-487.15
0.1585,0.8415	-485.64
0.2119,0.7881	-483.10
0.1351,0.8649	-478.75
0.1606,0.8394	-480.66
0.1268,0.8732	-488.43
0.2073,0.7927	-492.38
0.1709,0.8291	-487.12
0.2497,0.7503	-487.47
0.1321,0.8679	-482.51
0.1492,0.8508	-480.57
0.1353,0.8647	-482.46
0.2156,0.7844	-488.35
0.2042,0.7958	-487.00
0.2455,0.7545	-487.40
0.1378,0.8622	-482.42
0.1230,0.8770	-480.78
0.1411,0.8589	-484.18
0.2219,0.7781	-487.12
0.1910,0.8090	-482.66
0.2486,0.7514	-484.13
0.1597,0.8403	-480.65
0.1195,0.8805	-478.87
0.1307,0.8693	-482.54
0.2038,0.7962	-482.91
0.1535,0.8465	-480.60
0.2785,0.7215	-490.85
0.1585,0.8415	-485.64
0.1270,0.8730	-482.63
0.1067,0.8933	-481.32
0.1810,0.8190	-482.50
0.1711,0.8289	-482.38
0.2917,0.7083	-489.16
0.1486,0.8514	-478.83
0.1195,0.8805	-478.87
0.1259,0.8741	-488.48
0.1684,0.8316	-488.74
0.1636,0.8364	-482.33
0.3102,0.6898	-486.31
0.1632,0.8368	-485.59
0.1250,0.8750	-484.63
0.1382,0.8618	-480.58
0.1910,0.8090	-482.65
0.1530,0.8470	-480.59
0.2617,0.7383	-484.56
0.1482,0.8518	-484.07
0.1557,0.8443	-485.68
0.1271,0.8729	-478.77
0.1520,0.8480	-482.31
0.1622,0.8378	-482.32
0.1851,0.8149	-488.48
0.1216,0.8784	-482.79
0.1722,0.8278	-480.82
0.1330,0.8670	-484.37
0.1348,0.8652	-478.75
0.1914,0.8086	-485.54
0.1671,0.8329	-485.56
0.1154,0.8846	-485.06
0.1313,0.8687	-491.98
0.1434,0.8566	-484.14
0.1294,0.8706	-488.29
0.1433,0.8567	-484.14
0.1469,0.8531	-484.09
0.1047,0.8953	-485.72
0.0982,0.9018	-484.01
0.1312,0.8688	-478.75
0.1290,0.8710	-482.58
0.1584,0.8416	-478.96
0.1786,0.8214	-482.46
0.0986,0.9014	-488.41
0.0840,0.9160	-483.00
0.1597,0.8403	-485.63
0.1185,0.8815	-480.89
0.1447,0.8553	-484.12
0.1687,0.8313	-487.14
0.1277,0.8723	-484.53
0.0824,0.9176	-480.76
0.1404,0.8596	-482.38
0.1009,0.8991	-483.82
0.1630,0.8370	-485.59
0.1489,0.8511	-485.80
0.1338,0.8662	-480.61
0.0836,0.9164	-483.03
0.1289,0.8711	-480.67
0.1210,0.8790	-480.83
0.1698,0.8302	-482.37
0.1417,0.8583	-487.77
0.1529,0.8471	-482.30
0.0986,0.9014	-479.56
0.1073,0.8927	-481.30
0.1275,0.8725	-482.62
0.1832,0.8168	-487.01
0.1092,0.8908	-481.21
0.1551,0.8449	-484.00
0.0971,0.9029	-488.56
0.1200,0.8800	-480.85
0.1306,0.8694	-478.75
0.1907,0.8093	-488.43
0.1381,0.8619	-480.58
0.1330,0.8670	-484.37
0.1139,0.8861	-489.24
0.1199,0.8801	-486.83
0.1703,0.8297	-487.12
0.1685,0.8315	-488.74
0.1276,0.8724	-480.69
0.1683,0.8317	-482.36
0.1148,0.8852	-485.09
0.1244,0.8756	-484.65
0.1772,0.8228	-480.91
0.1596,0.8404	-482.31
0.1457,0.8543	-480.57
0.1776,0.8224	-488.58
0.0965,0.9035	-486.39
0.1329,0.8671	-478.75
0.1508,0.8492	-482.31
0.1323,0.8677	-480.63
0.1239,0.8761	-478.81
0.1618,0.8382	-485.61
0.0852,0.9148	-480.49
0.1259,0.8741	-478.78
0.1371,0.8629	-484.27
0.1243,0.8757	-478.80
0.1168,0.8832	-478.92
0.1680,0.8320	-480.75
0.0827,0.9173	-485.55
0.1347,0.8653	-486.19
0.1192,0.8808	-482.87
0.1581,0.8419	-483.98
0.1058,0.8942	-481.37
0.1712,0.8288	-482.38
0.0851,0.9149	-487.64
0.1264,0.8736	-482.65
0.1193,0.8807	-482.87
0.1510,0.8490	-485.76
0.1049,0.8951	-483.56
0.1854,0.8146	-484.04
0.0968,0.9032	-481.89
0.1431,0.8569	-485.94
0.1260,0.8740	-482.66
0.1995,0.8005	-485.60
0.1055,0.8945	-479.25
0.1372,0.8628	-482.43
0.0869,0.9131	-485.06
0.1665,0.8335	-485.56
0.1354,0.8646	-480.60
0.2144,0.7856	-487.05
0.0915,0.9085	-484.59
0.1528,0.8472	-489.15
0.0799,0.9201	-481.02
0.1770,0.8230	-483.98
0.1324,0.8676	-484.39
0.2060,0.7940	-484.31
0.0783,0.9217	-486.12
0.1669,0.8331	-483.95
0.0904,0.9096	-484.69
0.1662,0.8338	-483.95
0.1240,0.8760	-486.62
0.2632,0.7368	-485.64
0.1011,0.8989	-488.17
0.1847,0.8153	-482.55
0.1085,0.8915	-481.24
0.1754,0.8246	-487.07
0.1329,0.8671	-478.75
0.2546,0.7454	-489.70
0.1128,0.8872	-483.14
0.2036,0.7964	-485.63
0.0954,0.9046	-486.48
0.2023,0.7977	-486.99
0.1537,0.8463	-484.01
0.2876,0.7124	-490.00
0.1188,0.8812	-486.89
0.1824,0.8176	-482.51
0.0992,0.9008	-483.94
0.1955,0.8045	-484.15
0.1491,0.8509	-485.80
0.3374,0.6626	-489.41
0.1452,0.8548	-485.88
0.1904,0.8096	-482.64
0.0863,0.9137	-487.48
0.2210,0.7790	-484.59
0.1765,0.8235	-482.44
0.3079,0.6921	-490.27
0.1526,0.8474	-482.30
0.1610,0.8390	-480.66
0.0937,0.9063	-488.92
0.2018,0.7982	-489.74
0.1665,0.8335	-485.56
0.2749,0.7251	-485.98
0.1759,0.8241	-482.43
0.1529,0.8471	-482.30
0.1081,0.8919	-481.26
0.1519,0.8481	-485.75
0.1753,0.8247	-480.88
0.2575,0.7425	-487.60
0.2057,0.7943	-484.30
0.2052,0.7948	-484.30
0.1008,0.8992	-481.64
0.1574,0.8426	-483.98
0.1517,0.8483	-484.03
0.2928,0.7072	-486.54
0.1929,0.8071	-486.98
0.2166,0.7834	-485.78
0.0971,0.9029	-486.33
0.1694,0.8306	-482.37
0.1357,0.8643	-482.45
0.3133,0.6867	-487.21
0.2237,0.7763	-484.64
0.2565,0.7435	-486.51
0.1087,0.8913	-479.13
0.1784,0.8216	-480.93
0.1399,0.8601	-486.02
0.3039,0.6961	-488.56
0.2318,0.7682	-486.02
0.3010,0.6990	-487.65
0.1028,0.8972	-483.69
0.1674,0.8326	-483.95
0.1142,0.8858	-487.17
0.2969,0.7031	-489.25
0.2502,0.7498	-485.28
0.2738,0.7262	-487.90
0.0932,0.9068	-484.43
0.1914,0.8086	-484.10
0.1217,0.8783	-478.83
0.2998,0.7002	-487.61
0.2691,0.7309	-484.81
0.2799,0.7201	-488.02
0.0961,0.9039	-486.42
0.1745,0.8255	-485.52
0.1200,0.8800	-480.85
0.3198,0.6802	-486.68
0.2683,0.7317	-487.79
0.2670,0.7330	-486.76
0.0849,0.9151	-480.52
0.1726,0.8274	-482.39
0.1254,0.8746	-484.61
0.2689,0.7311	-487.80
0.2848,0.7152	-488.13
0.2392,0.7608	-485.00
0.0951,0.9049	-482.01
0.1638,0.8362	-483.96
0.1246,0.8754	-486.59
0.3079,0.6921	-484.60
0.3001,0.6999	-489.31
0.2532,0.7468	-486.44
0.0898,0.9102	-484.75
0.1653,0.8347	-482.33
0.1266,0.8734	-488.43
0.2964,0.7036	-489.25
0.3349,0.6651	-492.08
0.2118,0.7882	-487.04
0.0900,0.9100	-480.11
0.1713,0.8287	-480.81
0.1586,0.8414	-478.97
0.2825,0.7175	-486.21
0.3147,0.6853	-489.60
0.2166,0.7834	-488.36
0.0873,0.9127	-485.01
0.1527,0.8473	-484.02
0.1763,0.8237	-485.52
0.2342,0.7658	-487.25
0.2991,0.7009	-488.44
0.2011,0.7989	-484.23
0.0933,0.9067	-484.42
0.1518,0.8482	-480.59
0.1706,0.8294	-485.54
0.1973,0.8027	-481.37
0.3373,0.6627	-488.05
0.2424,0.7576	-483.94
0.0906,0.9094	-482.37
0.1426,0.8574	-480.57
0.1900,0.8100	-486.99
0.1882,0.8118	-485.53
0.3483,0.6517	-491.58
0.2224,0.7776	-485.87
0.1028,0.8972	-481.52
0.1313,0.8687	-480.64
0.2066,0.7934	-484.32
0.1817,0.8183	-491.54
0.3603,0.6397	-491.19
0.1974,0.8026	-491.19
0.1154,0.8846	-480.98
0.1199,0.8801	-482.85
0.2094,0.7906	-483.04
0.1990,0.8010	-485.59
0.3379,0.6621	-494.13
0.1852,0.8148	-481.08
0.1098,0.8902	-485.37
0.1188,0.8812	-482.89
0.2168,0.7832	-483.22
0.1483,0.8517	-482.32
0.2643,0.7357	-488.74
0.1721,0.8279	-482.39
0.1102,0.8898	-481.17
0.1328,0.8672	-484.38
0.2125,0.7875	-483.11
0.1468,0.8532	-482.33
0.2459,0.7541	-491.89
0.1422,0.8578	-485.96
0.1112,0.8888	-489.45
0.1322,0.8678	-482.51
0.2043,0.7957	-482.92
0.1491,0.8509	-480.57
0.2246,0.7754	-487.14
0.1689,0.8311	-482.36
0.1124,0.8876	-483.15
0.1018,0.8982	-481.58
0.2093,0.7907	-485.69
0.1568,0.8432	-485.67
0.2194,0.7806	-487.09
0.1955,0.8045	-484.15
0.1270,0.8730	-478.77
0.0889,0.9111	-482.52
0.1931,0.8069	-488.41
0.1567,0.8433	-483.99
0.2434,0.7566	-486.24
0.2185,0.7815	-484.54
0.1208,0.8792	-488.77
0.0827,0.9173	-480.73
0.1714,0.8286	-483.96
0.1801,0.8199	-482.48
0.2318,0.7682	-487.22
0.2468,0.7532	-489.65
0.1143,0.8857	-481.02
0.0904,0.9096	-487.01
0.2074,0.7926	-485.67
0.2039,0.7961	-484.27
0.2374,0.7626	-486.12
0.2373,0.7627	-484.95
0.1026,0.8974	-488.04
0.0873,0.9127	-480.31
0.2065,0.7935	-484.32
0.1716,0.8284	-482.38
0.2362,0.7638	-484.93
0.2478,0.7522	-488.55
0.1191,0.8809	-480.87
0.0884,0.9116	-484.89
0.2346,0.7654	-484.89
0.1662,0.8338	-487.18
0.2489,0.7511	-484.14
0.2311,0.7689	-484.81
0.1115,0.8885	-485.27
0.0877,0.9123	-484.97
0.2158,0.7842	-488.35
0.1342,0.8658	-484.34
0.2763,0.7237	-488.91
0.2436,0.7564	-486.24
0.1079,0.8921	-481.27
0.1000,0.9000	-483.88
0.2146,0.7854	-485.76
0.1670,0.8330	-482.35
0.2907,0.7093	-489.15
0.2693,0.7307	-491.80
0.1337,0.8663	-486.22
0.1130,0.8870	-481.06
0.2177,0.7823	-489.64
0.1840,0.8160	-485.52
0.3301,0.6699	-488.50
0.2480,0.7520	-488.55
0.1311,0.8689	-484.43
0.1299,0.8701	-484.46
0.2073,0.7927	-489.70
0.1566,0.8434	-480.62
0.2806,0.7194	-488.04
0.2644,0.7356	-489.76
0.1336,0.8664	-484.36
0.1576,0.8424	-482.30
0.1729,0.8271	-482.40
0.2137,0.7863	-481.84
0.2729,0.7271	-486.90
0.2250,0.7750	-485.91
0.1660,0.8340	-482.34
0.1832,0.8168	-481.03
0.1750,0.8250	-487.07
0.1707,0.8293	-482.38
0.3279,0.6721	-490.59
0.1926,0.8074	-484.12
0.1777,0.8223	-480.92
0.1640,0.8360	-483.96
0.1830,0.8170	-482.52
0.1866,0.8134	-488.47
0.2715,0.7285	-490.81
0.1982,0.8018	-481.40
0.1869,0.8131	-487.00
0.1746,0.8254	-482.42
0.1833,0.8167	-485.52
0.1916,0.8084	-486.98
0.2241,0.7759	-488.38
0.2049,0.7951	-481.58
0.1703,0.8297	-479.20
0.1549,0.8451	-487.39
0.1808,0.8192	-484.00
0.2041,0.7959	-488.36
0.1699,0.8301	-483.96
0.1911,0.8089	-485.54
0.1743,0.8257	-485.52
0.1987,0.8013	-484.20
0.1789,0.8211	-482.47
0.1800,0.8200	-482.48
0.1888,0.8112	-482.62
0.1778,0.8222	-483.98
0.1852,0.8148	-484.04
0.2360,0.7640	-484.92
0.1431,0.8569	-484.15
0.2072,0.7928	-487.01
0.2071,0.7929	-482.99
0.1697,0.8303	-482.37
0.1853,0.8147	-488.48
0.2631,0.7369	-487.69
0.1161,0.8839	-482.99
0.1866,0.8134	-488.47
0.1806,0.8194	-482.49
0.1626,0.8374	-479.04
0.1474,0.8526	-489.34
0.2204,0.7796	-482.05
0.1072,0.8928	-483.42
0.2047,0.7953	-482.93
0.1847,0.8153	-482.55
0.2084,0.7916	-483.01
0.1722,0.8278	-479.25
0.1866,0.8134	-481.11
0.0988,0.9012	-479.55
0.2240,0.7760	-485.89
0.1755,0.8245	-483.97
0.2157,0.7843	-488.35
0.1472,0.8528	-482.32
0.1699,0.8301	-487.13
0.1081,0.8919	-485.48
0.2244,0.7756	-484.66
0.1614,0.8386	-483.96
0.2166,0.7834	-487.07
0.1843,0.8157	-482.54
0.1478,0.8522	-480.57
0.1061,0.8939	-485.62
0.2819,0.7181	-488.06
0.1926,0.8074	-482.68
0.2118,0.7882	-488.35
0.1584,0.8416	-487.32
0.1799,0.8201	-485.51
0.1125,0.8875	-485.22
0.2770,0.7230	-489.88
0.2198,0.7802	-487.10
0.2240,0.7760	-488.38
0.1997,0.8003	-485.60
0.1862,0.8138	-481.10
0.1304,0.8696	-482.55
0.2563,0.7437	-486.51
0.2625,0.7375	-488.72
0.2098,0.7902	-485.70
0.2503,0.7497	-485.28
0.1782,0.8218	-487.04
0.1771,0.8229	-483.98
0.2497,0.7503	-489.67
0.2253,0.7747	-485.91
0.2255,0.7745	-485.92
0.2474,0.7526	-488.54
0.2041,0.7959	-487.00
0.1952,0.8048	-482.73
0.2564,0.7436	-485.45
0.2460,0.7540	-487.41
0.2340,0.7660	-486.06
0.2573,0.7427	-486.53
0.1967,0.8033	-482.76
0.2106,0.7894	-488.35
0.2917,0.7083	-486.50
0.2531,0.7469	-489.69
0.2813,0.7187	-488.99
0.2207,0.7793	-483.32
0.1658,0.8342	-483.95
0.2127,0.7873	-484.43
0.3031,0.6969	-491.04
0.2897,0.7103	-488.23
0.2935,0.7065	-488.32
0.2357,0.7643	-486.09
0.1334,0.8666	-480.62
0.1903,0.8097	-484.09
0.2795,0.7205	-489.91
0.2661,0.7339	-487.75
0.2925,0.7075	-488.29
0.2263,0.7737	-484.70
0.1082,0.8918	-483.37
0.1661,0.8339	-487.18
0.2630,0.7370	-486.66
0.2387,0.7613	-483.83
0.2752,0.7248	-485.02
0.2260,0.7740	-488.39
0.0993,0.9007	-490.55
0.1718,0.8282	-485.53
0.2229,0.7771	-484.63
0.2351,0.7649	-486.08
0.2846,0.7154	-488.12
0.2700,0.7300	-487.82
0.0883,0.9117	-480.23
0.1612,0.8388	-487.26
0.2037,0.7963	-489.72
0.2026,0.7974	-492.48
0.2692,0.7308	-487.81
0.2776,0.7224	-487.97
0.1055,0.8945	-479.24
0.1342,0.8658	-478.75
0.1949,0.8051	-482.73
0.2065,0.7935	-489.70
0.2214,0.7786	-490.88
0.2948,0.7052	-486.60
0.0849,0.9151	-487.65
0.1653,0.8347	-487.19
0.1560,0.8440	-482.30
0.2711,0.7289	-487.85
0.2203,0.7797	-483.31
0.3341,0.6659	-490.01
0.0794,0.9206	-483.53
0.1950,0.8050	-482.73
0.1539,0.8461	-489.12
0.3252,0.6748	-489.82
0.2256,0.7744	-483.45
0.3321,0.6679	-489.96
0.1048,0.8952	-485.71
0.1842,0.8158	-484.03
0.1727,0.8273	-483.96
0.3563,0.6437	-491.11
0.2606,0.7394	-488.69
0.3317,0.6683	-489.95
0.0995,0.9005	-479.51
0.2114,0.7886	-481.77
0.1564,0.8436	-485.67
0.3384,0.6616	-490.10
0.2384,0.7616	-484.98
0.2974,0.7026	-492.70
0.1008,0.8992	-479.45
0.2308,0.7692	-487.21
0.1578,0.8422	-483.98
0.3353,0.6647	-491.40
0.1733,0.8267	-483.96
0.2599,0.7401	-487.64
0.1316,0.8684	-480.64
0.2121,0.7879	-481.79
0.1493,0.8507	-478.83
0.2673,0.7327	-488.78
0.1874,0.8126	-486.99
0.2188,0.7812	-485.82
0.1408,0.8592	-480.57
0.2110,0.7890	-481.76
0.1706,0.8294	-487.12
0.2784,0.7216	-487.99
0.1758,0.8242	-483.97
0.2363,0.7637	-487.28
0.1489,0.8511	-482.32
0.2037,0.7963	-485.63
0.1961,0.8039	-484.16
0.3207,0.6793	-490.47
0.1660,0.8340	-490.41
0.2192,0.7808	-485.82
0.1625,0.8375	-487.24
0.1644,0.8356	-488.83
0.2066,0.7934	-481.63
0.2832,0.7168	-491.81
0.1281,0.8719	-484.52
0.2235,0.7765	-483.40
0.1389,0.8611	-489.70
0.1782,0.8218	-479.40
0.2094,0.7906	-484.37
0.2341,0.7659	-489.62
0.1091,0.8909	-483.32
0.2394,0.7606	-483.85
0.1340,0.8660	-482.48
0.2093,0.7907	-481.70
0.2338,0.7662	-484.87
0.2023,0.7977	-488.37
0.1223,0.8777	-482.77
0.2447,0.7553	-488.52
0.1537,0.8463	-487.42
0.2592,0.7408	-488.68
0.2145,0.7855	-490.95
0.2146,0.7854	-487.06
0.1087,0.8913	-481.24
0.2137,0.7863	-483.14
0.1550,0.8450	-487.39
0.2315,0.7685	-487.22
0.1974,0.8026	-482.78
0.2448,0.7552	-486.27
0.1243,0.8757	-480.75
0.2336,0.7664	-483.68
0.1620,0.8380	-479.03
0.2303,0.7697	-489.62
0.2148,0.7852	-487.06
0.2193,0.7807	-487.09
0.1342,0.8658	-486.20
0.2100,0.7900	-487.03
0.2030,0.7970	-487.00
0.1804,0.8196	-490.05
0.2050,0.7950	-485.65
0.2520,0.7480	-487.51
0.1603,0.8397	-485.62
0.2309,0.7691	-487.21
0.2044,0.7956	-484.28
0.1717,0.8283	-483.96
0.2397,0.7603	-483.86
0.2464,0.7536	-486.30
0.1347,0.8653	-480.61
0.2433,0.7567	-485.10
0.2026,0.7974	-482.88
0.1779,0.8221	-482.45
0.2445,0.7555	-487.39
0.2489,0.7511	-488.56
0.1275,0.8725	-484.54
0.2391,0.7609	-486.15
0.1941,0.8059	-481.29
0.1688,0.8312	-483.95
0.2595,0.7405	-486.58
0.2960,0.7040	-486.64
0.1445,0.8555	-480.57
0.2775,0.7225	-485.10
0.1945,0.8055	-479.88
0.1868,0.8132	-481.11
0.2609,0.7391	-486.61
0.2340,0.7660	-487.25
0.1530,0.8470	-480.59
0.2979,0.7021	-490.99
0.1918,0.8082	-485.55
0.1762,0.8238	-483.98
0.2800,0.7200	-489.91
0.2477,0.7523	-487.44
0.1263,0.8737	-488.45
0.2271,0.7729	-485.94
0.1790,0.8210	-482.47
0.1609,0.8391	-485.62
0.2403,0.7597	-483.88
0.3231,0.6769	-489.77
0.1374,0.8626	-480.59
0.2087,0.7913	-488.35
0.1343,0.8657	-488.06
0.1764,0.8236	-483.98
0.2146,0.7854	-483.16
0.3429,0.6571	-489.56
0.1360,0.8640	-482.44
0.2095,0.7905	-489.68
0.1221,0.8779	-480.80
0.1614,0.8386	-479.02
0.2130,0.7870	-484.43
0.3008,0.6992	-493.54
0.1471,0.8529	-487.60
0.1949,0.8051	-486.98
0.1111,0.8889	-483.22
0.1759,0.8241	-483.97
0.1780,0.8220	-480.93
0.2819,0.7181	-486.19
0.2044,0.7956	-487.00
0.1776,0.8224	-488.58
0.1282,0.8718	-480.68
0.1558,0.8442	-482.30
0.1897,0.8103	-486.99
0.2471,0.7529	-489.66
0.1819,0.8181	-479.50
0.1924,0.8076	-482.68
0.1350,0.8650	-478.75
0.1741,0.8259	-485.52
0.1993,0.8007	-489.77
0.2364,0.7636	-486.10
0.1808,0.8192	-484.00
0.2011,0.7989	-484.23
0.1659,0.8341	-483.95
0.1816,0.8184	-487.02
0.2139,0.7861	-490.96
0.1815,0.8185	-482.50
0.1975,0.8025	-485.58
0.1951,0.8049	-485.57
0.1617,0.8383	-488.90
0.2027,0.7973	-482.89
0.2285,0.7715	-485.96
0.1644,0.8356	-485.58
0.1846,0.8154	-482.55
0.1695,0.8305	-487.13
0.1297,0.8703	-482.57
0.2040,0.7960	-482.92
0.2294,0.7706	-483.56
0.1661,0.8339	-485.57
0.1983,0.8017	-485.59
0.1675,0.8325	-482.35
0.1210,0.8790	-482.81
0.2107,0.7893	-483.07
0.2139,0.7861	-485.75
0.1662,0.8338	-482.34
0.1873,0.8127	-486.99
0.1764,0.8236	-483.98
0.1400,0.8600	-484.20
0.2126,0.7874	-483.12
0.1818,0.8182	-484.01
0.1821,0.8179	-485.52
0.1575,0.8425	-485.66
0.1909,0.8091	-482.65
0.1525,0.8475	-482.30
0.1705,0.8295	-485.54
0.1489,0.8511	-482.32
0.1519,0.8481	-478.87
0.1567,0.8433	-480.62
0.2025,0.7975	-485.62
0.1412,0.8588	-480.57
0.1866,0.8134	-484.05
0.1694,0.8306	-483.95
0.1478,0.8522	-482.32
0.1604,0.8396	-483.97
0.1907,0.8093	-486.99
0.1320,0.8680	-484.40
0.1752,0.8248	-482.42
0.2041,0.7959	-488.36
0.1478,0.8522	-482.32
0.1653,0.8347	-487.19
0.1900,0.8100	-486.99
0.1330,0.8670	-484.37
0.2008,0.7992	-484.23
0.2116,0.7884	-480.46
0.1418,0.8582	-480.57
0.1791,0.8209	-483.99
0.2011,0.7989	-482.85
0.1459,0.8541	-489.40
0.1614,0.8386	-482.31
0.1954,0.8046	-485.57
0.1369,0.8631	-484.27
0.1553,0.8447	-480.61
0.2067,0.7933	-485.67
0.1428,0.8572	-484.15
0.2079,0.7921	-484.34
0.1662,0.8338	-483.95
0.1464,0.8536	-478.80
0.1601,0.8399	-482.31
0.2118,0.7882	-490.98
0.1503,0.8497	-487.51
0.1972,0.8028	-482.77
0.1509,0.8491	-480.58
0.1455,0.8545	-482.34
0.1817,0.8183	-485.52
0.2362,0.7638	-484.93
0.1348,0.8652	-486.18
0.1701,0.8299	-482.37
0.1353,0.8647	-482.46
0.1470,0.8530	-480.57
0.1463,0.8537	-482.33
0.1937,0.8063	-485.56
0.1192,0.8808	-484.87
0.2024,0.7976	-485.62
0.1431,0.8569	-480.57
0.1358,0.8642	-484.30
0.1305,0.8695	-488.24
0.2156,0.7844	-487.06
0.1218,0.8782	-482.78
0.2133,0.7867	-480.52
0.1283,0.8717	-480.68
0.1242,0.8758	-482.71
0.1344,0.8656	-482.47
0.2158,0.7842	-484.48
0.1077,0.8923	-487.62
0.1884,0.8116	-486.99
0.1190,0.8810	-488.89
0.1418,0.8582	-484.17
0.1681,0.8319	-488.75
0.2386,0.7614	-486.15
0.1202,0.8798	-478.85
0.1967,0.8033	-484.17
0.1318,0.8682	-482.52
0.1363,0.8637	-480.59
0.1591,0.8409	-485.64
0.1944,0.8056	-485.56
0.1461,0.8539	-491.16
0.1795,0.8205	-485.51
0.1375,0.8625	-480.59
0.1565,0.8435	-485.67
0.1527,0.8473	-480.59
0.1597,0.8403	-480.65
0.1539,0.8461	-485.71
0.1777,0.8223	-482.45
0.1534,0.8466	-484.01
0.1780,0.8220	-480.93
0.1811,0.8189	-485.51
0.1480,0.8520	-484.07
0.1588,0.8412	-488.98
0.1747,0.8253	-480.86
0.1235,0.8765	-478.81
0.1945,0.8055	-488.40
0.1807,0.8193	-484.00
0.1681,0.8319	-485.55
0.1819,0.8181	-481.00
0.1733,0.8267	-483.96
0.1271,0.8729	-484.55
0.1999,0.8001	-486.99
0.1697,0.8303	-485.54
0.2230,0.7770	-482.13
0.1874,0.8126	-484.06
0.1623,0.8377	-482.32
0.1449,0.8551	-480.57
0.2281,0.7719	-487.18
0.1559,0.8441	-487.37
0.1947,0.8053	-484.14
0.1634,0.8366	-482.32
0.1497,0.8503	-487.52
0.1395,0.8605	-482.40
0.2167,0.7833	-483.22
0.1765,0.8235	-487.06
0.2196,0.7804	-487.10
0.1815,0.8185	-482.50
0.1446,0.8554	-487.68
0.1444,0.8556	-489.46
0.2136,0.7864	-487.05
0.1767,0.8233	-490.13
0.2460,0.7540	-488.53
0.1647,0.8353	-483.95
0.1407,0.8593	-486.00
0.1454,0.8546	-485.88
0.1662,0.8338	-483.95
0.2017,0.7983	-484.24
0.2493,0.7507	-486.36
0.1867,0.8133	-485.52
0.1401,0.8599	-480.57
0.1601,0.8399	-480.65
0.2090,0.7910	-485.69
0.2105,0.7895	-489.67
0.2496,0.7504	-484.16
0.1798,0.8202	-482.48
0.1388,0.8612	-484.23
0.1577,0.8423	-489.00
0.2216,0.7784	-488.37
0.2267,0.7733	-483.48
0.3134,0.6866	-491.92
0.2045,0.7955	-488.36
0.1250,0.8750	-486.58
0.1653,0.8347	-485.57
0.2504,0.7496	-487.48
0.2079,0.7921	-487.02
0.3093,0.6907	-488.69
0.2063,0.7937	-488.36
0.1229,0.8771	-480.78
0.1537,0.8463	-482.30
0.2565,0.7435	-487.58
0.1750,0.8250	-488.62
0.2931,0.7069	-486.55
0.2396,0.7604	-486.16
0.1359,0.8641	-486.15
0.1682,0.8318	-480.76
0.2531,0.7469	-487.52
0.1647,0.8353	-485.58
0.2870,0.7130	-487.26
0.2424,0.7576	-485.08
0.1801,0.8199	-482.48
0.1680,0.8320	-485.55
0.1962,0.8038	-488.39
0.2147,0.7853	-485.76
0.2374,0.7626	-484.96
0.2434,0.7566	-489.64
0.1262,0.8738	-480.72
0.1557,0.8443	-485.68
0.1632,0.8368	-479.05
0.2105,0.7895	-488.35
0.2165,0.7835	-488.36
0.2354,0.7646	-483.73
0.1360,0.8640	-489.84
0.1570,0.8430	-482.30
0.1692,0.8308	-483.95
0.2031,0.7969	-485.63
0.2279,0.7721	-484.73
0.2503,0.7497	-489.67
0.1547,0.8453	-482.30
0.1810,0.8190	-490.04
0.1793,0.8207	-485.51
0.1943,0.8057	-491.25
0.2089,0.7911	-485.69
0.2456,0.7544	-486.28
0.1692,0.8308	-488.73
0.1898,0.8102	-484.08
0.1637,0.8363	-482.33
0.1835,0.8165	-481.04
0.2299,0.7701	-485.99
0.2530,0.7470	-488.60
0.1659,0.8341	-482.34
0.2214,0.7786	-484.60
0.1572,0.8428	-483.98
0.1925,0.8075	-482.68
0.2399,0.7601	-488.48
0.2155,0.7845	-483.19
0.1715,0.8285	-488.68
0.1563,0.8437	-480.62
0.1558,0.8442	-480.61
0.1782,0.8218	-479.40
0.2504,0.7496	-486.38
0.2317,0.7683	-484.82
0.2419,0.7581	-489.64
0.1521,0.8479	-484.02
0.1701,0.8299	-482.37
0.1839,0.8161	-481.05
0.2233,0.7767	-485.88
0.2283,0.7717	-488.40
0.2277,0.7723	-488.39
0.1456,0.8544	-484.11
0.1697,0.8303	-485.54
0.2109,0.7891	-489.67
0.2193,0.7807	-487.09
0.2238,0.7762	-483.40
0.2514,0.7486	-486.40
0.1595,0.8405	-483.97
0.1489,0.8511	-484.06
0.1975,0.8025	-486.98
0.2429,0.7571	-485.09
0.2137,0.7863	-483.14
0.2083,0.7917	-487.02
0.1827,0.8173	-482.52
0.1374,0.8626	-484.26
0.1898,0.8102	-481.18
0.2033,0.7967	-485.63
0.2285,0.7715	-487.18
0.2117,0.7883	-485.72
0.1713,0.8287	-485.53
0.1619,0.8381	-482.32
0.1769,0.8231	-482.44
0.2049,0.7951	-488.36
0.2046,0.7954	-489.72
0.1963,0.8037	-488.39
0.1772,0.8228	-480.91
0.1407,0.8593	-484.19
0.1625,0.8375	-483.96
0.1789,0.8211	-488.56
0.1928,0.8072	-481.26
0.2227,0.7773	-484.62
0.1787,0.8213	-483.99
0.1301,0.8699	-482.56
0.1549,0.8451	-485.70
0.2090,0.7910	-485.69
0.1897,0.8103	-482.63
0.1901,0.8099	-481.19
0.1591,0.8409	-487.30
0.1241,0.8759	-478.80
0.1587,0.8413	-485.64
0.2481,0.7519	-485.23
0.1867,0.8133	-487.00
0.1885,0.8115	-481.15
0.1664,0.8336	-480.73
0.1387,0.8613	-482.41
0.1780,0.8220	-479.40
0.2750,0.7250	-488.89
0.1622,0.8378	-483.96
0.1564,0.8436	-482.30
0.1820,0.8180	-488.52
0.1380,0.8620	-482.42
0.1707,0.8293	-483.96
0.2141,0.7859	-483.15
0.1661,0.8339	-482.34
0.1371,0.8629	-482.43
0.2170,0.7830	-485.79
0.1382,0.8618	-482.41
0.1575,0.8425	-483.98
0.2926,0.7074	-485.65
0.1661,0.8339	-482.34
0.1130,0.8870	-487.25
0.1904,0.8096	-485.54
0.1336,0.8664	-478.75
0.1653,0.8347	-487.19
0.2640,0.7360	-487.71
0.1316,0.8684	-480.64
0.1494,0.8506	-482.31
0.2229,0.7771	-488.37
0.1515,0.8485	-485.75
0.1902,0.8098	-485.54
0.2421,0.7579	-487.35
0.1245,0.8755	-486.60
0.1601,0.8399	-485.63
0.2142,0.7858	-489.65
0.1538,0.8462	-482.30
0.1620,0.8380	-485.60
0.2725,0.7275	-487.87
0.1736,0.8264	-480.84
0.1665,0.8335	-480.73
0.1756,0.8244	-480.88
0.1631,0.8369	-482.32
0.1859,0.8141	-485.52
0.2664,0.7336	-486.74
0.1696,0.8304	-485.54
0.1784,0.8216	-483.99
0.1665,0.8335	-483.95
0.1409,0.8591	-484.19
0.2280,0.7720	-485.96
0.2144,0.7856	-487.05
0.1570,0.8430	-483.98
0.1386,0.8614	-484.23
0.1611,0.8389	-483.96
0.1721,0.8279	-480.82
0.2001,0.7999	-488.37
0.2556,0.7444	-487.56
0.1542,0.8458	-484.00
0.1177,0.8823	-480.91
0.1489,0.8511	-489.29
0.1772,0.8228	-485.52
0.1975,0.8025	-486.98
0.2479,0.7521	-486.33
0.1729,0.8271	-482.40
0.1504,0.8496	-484.04
0.1451,0.8549	-482.34
0.1783,0.8217	-483.99
0.1843,0.8157	-482.54
0.2508,0.7492	-486.39
0.1678,0.8322	-483.95
0.1429,0.8571	-485.94
0.1338,0.8662	-484.35
0.1979,0.8021	-488.38
0.1996,0.8004	-485.60
0.2924,0.7076	-487.41
0.1900,0.8100	-485.54
0.1548,0.8452	-480.61
0.1496,0.8504	-484.05
0.1797,0.8203	-482.48
0.1834,0.8166	-482.53
0.2353,0.7647	-486.08
0.2148,0.7852	-483.17
0.1609,0.8391	-480.66
0.1609,0.8391	-483.96
0.1699,0.8301	-483.96
0.1946,0.8054	-488.40
0.2369,0.7631	-484.94
0.2069,0.7931	-484.32
0.1512,0.8488	-484.03
0.1825,0.8175	-482.52
0.1583,0.8417	-487.32
0.1941,0.8059	-482.71
0.2330,0.7670	-483.66
0.2362,0.7638	-487.27
0.1560,0.8440	-483.99
0.1647,0.8353	-482.33
0.1740,0.8260	-483.97
0.1921,0.8079	-485.55
0.2370,0.7630	-486.12
0.1631,0.8369	-482.32
0.1934,0.8066	-486.98
0.1629,0.8371	-482.32
0.1688,0.8312	-482.36
0.2136,0.7864	-484.44
0.2192,0.7808	-487.09
0.1634,0.8366	-483.96
0.1960,0.8040	-486.98
0.1766,0.8234	-483.98
0.1903,0.8097	-484.09
0.2291,0.7709	-485.98
0.2328,0.7672	-484.85
0.1438,0.8562	-482.35
0.2002,0.7998	-481.45
0.1728,0.8272	-483.96
0.2084,0.7916	-484.35
0.2398,0.7602	-489.63
0.2226,0.7774	-484.62
0.1352,0.8648	-486.17
0.1776,0.8224	-483.98
0.1961,0.8039	-484.16
0.1705,0.8295	-485.54
0.2015,0.7985	-482.86
0.2018,0.7982	-488.37
0.1186,0.8814	-484.90
0.1440,0.8560	-482.35
0.1848,0.8152	-481.07
0.1551,0.8449	-482.30
0.2176,0.7824	-489.64
0.2097,0.7903	-484.37
0.1113,0.8887	-487.36
0.1297,0.8703	-484.47
0.1674,0.8326	-487.16
0.1434,0.8566	-482.35
0.1904,0.8096	-485.54
0.1680,0.8320	-485.55
0.1161,0.8839	-480.96
0.1638,0.8362	-485.59
0.1947,0.8053	-485.56
0.1587,0.8413	-488.98
0.1545,0.8455	-482.30
0.1701,0.8299	-488.71
0.1280,0.8720	-480.69
0.1736,0.8264	-485.53
0.1899,0.8101	-481.18
0.1550,0.8450	-480.61
0.2088,0.7912	-484.36
0.1608,0.8392	-488.92
0.1241,0.8759	-484.67
0.1376,0.8624	-487.93
0.2098,0.7902	-485.70
0.1491,0.8509	-478.83
0.1661,0.8339	-480.73
0.1693,0.8307	-482.36
0.1482,0.8518	-485.82
0.1181,0.8819	-486.93
0.1794,0.8206	-483.99
0.1991,0.8009	-485.59
0.1704,0.8296	-482.37
0.1966,0.8034	-486.98
0.1225,0.8775	-484.73
0.1185,0.8815	-480.89
0.1841,0.8159	-485.52
0.1948,0.8052	-488.40
0.1615,0.8385	-480.67
0.1877,0.8123	-479.67
0.1231,0.8769	-482.74
0.1248,0.8752	-478.79
0.1859,0.8141	-482.57
0.1622,0.8378	-480.68
0.1357,0.8643	-482.45
0.2343,0.7657	-489.62
0.1246,0.8754	-486.60
0.1360,0.8640	-478.75
0.1653,0.8347	-483.95
0.1955,0.8045	-485.57
0.1521,0.8479	-482.31
0.2044,0.7956	-484.28
0.1303,0.8697	-486.35
0.1650,0.8350	-482.33
0.1775,0.8225	-485.52
0.1992,0.8008	-486.99
0.1297,0.8703	-480.66
0.2041,0.7959	-485.64
0.1438,0.8562	-485.92
0.1894,0.8106	-485.53
0.1544,0.8456	-487.40
0.1623,0.8377	-479.04
0.1112,0.8888	-479.05
0.1655,0.8345	-483.95
0.1398,0.8602	-482.39
0.2017,0.7983	-488.37
0.1589,0.8411	-482.31
0.1606,0.8394	-480.66
0.1094,0.8906	-479.11
0.1531,0.8469	-482.30
0.1440,0.8560	-482.35
0.2172,0.7828	-487.08
0.1707,0.8293	-483.96
0.1469,0.8531	-480.57
0.1055,0.8945	-479.25
0.1284,0.8716	-480.68
0.1651,0.8349	-482.33
0.2016,0.7984	-481.49
0.1770,0.8230	-488.59
0.1738,0.8262	-485.52
0.0951,0.9049	-479.76
0.1478,0.8522	-484.07
0.1981,0.8019	-482.79
0.2038,0.7962	-485.64
0.2168,0.7832	-480.65
0.2164,0.7836	-487.07
0.1104,0.8896	-483.25
0.1799,0.8201	-479.45
0.2276,0.7724	-484.73
0.2083,0.7917	-484.35
0.1728,0.8272	-483.96
0.2213,0.7787	-485.85
0.0992,0.9008	-481.73
0.2175,0.7825	-485.80
0.2140,0.7860	-483.15
0.1984,0.8016	-482.80
0.1693,0.8307	-483.95
0.2459,0.7541	-490.77
0.1045,0.8955	-481.43
0.2336,0.7664	-483.68
0.1694,0.8306	-483.95
0.2127,0.7873	-483.12
0.1649,0.8351	-483.95
0.2046,0.7954	-482.93
0.1068,0.8932	-481.32
0.2140,0.7860	-484.45
0.1393,0.8607	-484.22
0.1651,0.8349	-482.33
0.1974,0.8026	-484.18
0.2097,0.7903	-483.04
0.1248,0.8752	-488.54
0.1995,0.8005	-482.82
0.1281,0.8719	-478.77
0.1598,0.8402	-488.95
0.1835,0.8165	-481.04
0.2256,0.7744	-490.85
0.1426,0.8574	-484.15
0.2196,0.7804	-488.36
0.1377,0.8623	-484.25
0.1795,0.8205	-479.44
0.1589,0.8411	-482.31
0.1967,0.8033	-488.39
0.1453,0.8547	-484.11
0.2398,0.7602	-487.32
0.1363,0.8637	-482.44
0.1703,0.8297	-480.79
0.1551,0.8449	-484.00
0.1828,0.8172	-485.52
0.1425,0.8575	-480.57
0.2224,0.7776	-487.12
0.1260,0.8740	-478.78
0.1768,0.8232	-479.36
0.1390,0.8610	-487.87
0.1759,0.8241	-480.89
0.1708,0.8292	-485.54
0.1722,0.8278	-487.10
0.1157,0.8843	-483.01
0.1795,0.8205	-488.55
0.1616,0.8384	-482.32
0.1614,0.8386	-480.67
0.1875,0.8125	-486.99
0.1514,0.8486	-482.31
0.1117,0.8883	-483.19
0.1954,0.8046	-481.32
0.2065,0.7935	-488.36
0.1652,0.8348	-482.33
0.1891,0.8109	-482.62
0.1217,0.8783	-482.78
0.1466,0.8534	-484.09
0.2089,0.7911	-483.03
0.2530,0.7470	-488.60
0.1596,0.8404	-478.99
0.1894,0.8106	-482.63
0.1077,0.8923	-483.39
0.1761,0.8239	-480.89
0.2204,0.7796	-487.10
0.2164,0.7836	-485.78
0.1822,0.8178	-484.01
0.2070,0.7930	-482.98
0.1057,0.8943	-485.64
0.2163,0.7837	-484.49
0.1935,0.8065	-486.98
0.2003,0.7997	-486.99
0.1620,0.8380	-480.67
0.1903,0.8097	-482.64
0.0968,0.9032	-484.12
0.1776,0.8224	-483.98
0.2012,0.7988	-489.75
0.1844,0.8156	-487.01
0.1414,0.8586	-484.18
0.2266,0.7734	-485.93
0.0819,0.9181	-485.64
0.1594,0.8406	-478.98
0.1903,0.8097	-486.99
0.2274,0.7726	-482.28
0.1428,0.8572	-484.15
0.2220,0.7780	-480.85
0.0649,0.9351	-483.18
0.1792,0.8208	-487.04
0.1949,0.8051	-484.15
0.2442,0.7558	-482.86
0.1516,0.8484	-482.31
0.1741,0.8259	-483.97
0.0696,0.9304	-484.97
0.1808,0.8192	-482.49
0.1527,0.8473	-482.30
0.2309,0.7691	-484.80
0.1442,0.8558	-485.91
0.1766,0.8234	-488.60
0.0681,0.9319	-485.23
0.1645,0.8355	-480.71
0.1576,0.8424	-483.98
0.2149,0.7851	-484.47
0.1310,0.8690	-480.64
0.2203,0.7797	-487.10
0.0730,0.9270	-484.41
0.1570,0.8430	-483.98
0.1801,0.8199	-479.45
0.2206,0.7794	-485.84
0.1315,0.8685	-484.41
0.1917,0.8083	-484.11
0.0929,0.9071	-482.18
0.1531,0.8469	-485.73
0.1671,0.8329	-487.17
0.2310,0.7690	-486.01
0.1542,0.8458	-485.71
0.2071,0.7929	-485.67
0.0823,0.9177	-483.18
0.1400,0.8600	-482.39
0.1220,0.8780	-484.75
0.2423,0.7577	-488.50
0.1611,0.8389	-485.61
0.1898,0.8102	-484.09
0.0815,0.9185	-485.69
0.1618,0.8382	-488.90
0.1089,0.8911	-489.64
0.2592,0.7408	-487.63
0.1578,0.8422	-487.33
0.1897,0.8103	-488.44
0.0894,0.9106	-484.79
0.1898,0.8102	-484.08
0.1242,0.8758	-484.66
0.2679,0.7321	-485.77
0.1549,0.8451	-482.30
0.1555,0.8445	-483.99
0.1151,0.8849	-478.95
0.1960,0.8040	-485.57
0.1408,0.8592	-482.38
0.2122,0.7878	-483.11
0.1340,0.8660	-478.75
0.1515,0.8485	-485.75
0.1342,0.8658	-482.47
0.1775,0.8225	-485.52
0.1655,0.8345	-483.95
0.1968,0.8032	-485.58
0.1336,0.8664	-480.62
0.1635,0.8365	-482.32
0.1402,0.8598	-480.57
0.2183,0.7817	-484.53
0.1848,0.8152	-481.07
0.1667,0.8333	-483.95
0.1369,0.8631	-480.59
0.1722,0.8278	-485.53
0.1506,0.8494	-489.23
0.2218,0.7782	-485.86
0.1720,0.8280	-485.53
0.1652,0.8348	-482.33
0.1269,0.8731	-484.56
0.1539,0.8461	-480.60
0.1744,0.8256	-485.52
0.2117,0.7883	-483.09
0.1795,0.8205	-485.51
0.1529,0.8471	-482.30
0.1285,0.8715	-480.68
0.1476,0.8524	-484.08
0.1352,0.8648	-482.46
0.2024,0.7976	-488.37
0.2091,0.7909	-484.36
0.1531,0.8469	-482.30
0.1550,0.8450	-485.69
0.1464,0.8536	-482.33
0.1308,0.8692	-486.33
0.2120,0.7880	-485.73
0.1924,0.8076	-485.55
0.1904,0.8096	-481.20
0.1663,0.8337	-487.18
0.1392,0.8608	-482.40
0.1286,0.8714	-478.76
0.2088,0.7912	-483.02
0.1935,0.8065	-484.13
0.1728,0.8272	-482.40
0.1926,0.8074	-485.55
0.1447,0.8553	-482.34
0.1371,0.8629	-480.59
0.2075,0.7925	-488.35
0.1639,0.8361	-487.22
0.1690,0.8310	-480.77
0.2006,0.7994	-485.61
0.1383,0.8617	-478.75
0.1260,0.8740	-484.59
0.2071,0.7929	-485.67
0.1440,0.8560	-480.57
0.2291,0.7709	-484.76
0.1832,0.8168	-485.52
0.1311,0.8689	-480.64
0.1417,0.8583	-484.17
0.1875,0.8125	-486.99
0.1255,0.8745	-482.67
0.2427,0.7573	-488.50
0.1502,0.8498	-482.31
0.1535,0.8465	-480.60
0.1521,0.8479	-484.02
0.1926,0.8074	-485.55
0.1313,0.8687	-480.64
0.2430,0.7570	-485.09
0.1209,0.8791	-482.81
0.1594,0.8406	-480.65
0.1526,0.8474	-482.30
0.1818,0.8182	-488.52
0.1279,0.8721	-480.69
0.2016,0.7984	-484.24
0.1279,0.8721	-484.53
0.1722,0.8278	-483.96
0.1525,0.8475	-484.02
0.1911,0.8089	-486.99
0.1141,0.8859	-478.98
0.2244,0.7756	-489.62
0.1257,0.8743	-486.54
0.1601,0.8399	-483.97
0.1961,0.8039	-486.98
0.1760,0.8240	-482.43
0.1131,0.8869	-483.12
0.2284,0.7716	-485.96
0.1290,0.8710	-478.76
0.1478,0.8522	-482.32
0.1581,0.8419	-482.31
0.1787,0.8213	-487.04
0.1408,0.8592	-484.19
0.2462,0.7538	-489.65
0.1304,0.8696	-482.55
0.1585,0.8415	-487.31
0.1566,0.8434	-482.30
0.1736,0.8264	-483.97
0.1173,0.8827	-480.92
0.2357,0.7643	-488.44
0.1429,0.8571	-478.78
0.1493,0.8507	-485.79
0.1576,0.8424	-483.98
0.1611,0.8389	-483.96
0.1411,0.8589	-480.57
0.2212,0.7788	-485.85
0.1381,0.8619	-482.41
0.1573,0.8427	-483.98
0.1465,0.8535	-480.57
0.1474,0.8526	-485.83
0.1229,0.8771	-480.78
0.2442,0.7558	-489.64
0.1500,0.8500	-482.31
0.2015,0.7985	-485.61
0.1272,0.8728	-484.55
0.1183,0.8817	-486.92
0.1176,0.8824	-482.93
0.2297,0.7703	-489.62
0.1633,0.8367	-483.96
0.1993,0.8007	-485.60
0.1210,0.8790	-482.81
0.1333,0.8667	-478.75
0.1256,0.8744	-484.61
0.2821,0.7179	-488.07
0.1358,0.8642	-480.60
0.1967,0.8033	-485.58
0.1250,0.8750	-482.68
0.1426,0.8574	-480.57
0.1360,0.8640	-484.29
0.2646,0.7354	-484.66
0.1531,0.8469	-482.30
0.1686,0.8314	-479.17
0.1394,0.8606	-486.04
0.1205,0.8795	-484.82
0.1351,0.8649	-484.32
0.2699,0.7301	-483.84
0.1265,0.8735	-480.71
0.1590,0.8410	-482.31
0.1605,0.8395	-487.28
0.1342,0.8658	-482.47
0.1376,0.8624	-487.93
0.2475,0.7525	-482.98
0.1278,0.8722	-484.53
0.2190,0.7810	-489.63
0.1484,0.8516	-484.07
0.1425,0.8575	-482.36
0.1264,0.8736	-484.58
0.2242,0.7758	-490.86
0.1216,0.8784	-488.72
0.2341,0.7659	-487.25
0.1334,0.8666	-478.75
0.1550,0.8450	-484.00
0.1440,0.8560	-487.69
0.2375,0.7625	-486.12
0.1385,0.8615	-480.58
0.2555,0.7445	-489.70
0.1271,0.8729	-482.63
0.1688,0.8312	-482.36
0.1318,0.8682	-482.52
0.2332,0.7668	-484.86
0.1611,0.8389	-483.96
0.2267,0.7733	-482.25
0.1347,0.8653	-488.05
0.1675,0.8325	-483.95
0.1229,0.8771	-484.71
0.2787,0.7213	-488.00
0.1569,0.8431	-480.62
0.2217,0.7783	-483.35
0.1776,0.8224	-487.05
0.1480,0.8520	-480.57
0.1544,0.8456	-484.00
0.2970,0.7030	-486.67
0.1661,0.8339	-482.34
0.2215,0.7785	-482.08
0.1536,0.8464	-482.30
0.1544,0.8456	-484.00
0.2072,0.7928	-485.67
0.2774,0.7226	-484.14
0.1669,0.8331	-483.95
0.2147,0.7853	-485.76
0.1339,0.8661	-482.48
0.1832,0.8168	-485.52
0.2120,0.7880	-485.73
0.2880,0.7120	-490.91
0.1729,0.8271	-480.83
0.2073,0.7927	-484.33
0.1597,0.8403	-485.63
0.1732,0.8268	-483.96
0.1811,0.8189	-482.50
0.2918,0.7082	-487.39
0.1257,0.8743	-480.73
0.1961,0.8039	-486.98
0.1696,0.8304	-487.13
0.1679,0.8321	-487.15
0.1672,0.8328	-482.35
0.2847,0.7153	-489.04
0.1483,0.8517	-480.57
0.1781,0.8219	-485.52
0.1878,0.8122	-482.60
0.1896,0.8104	-485.54
0.1501,0.8499	-487.51
0.3243,0.6757	-488.33
0.1446,0.8554	-485.90
0.1983,0.8017	-484.19
0.1846,0.8154	-482.55
0.1824,0.8176	-479.51
0.1461,0.8539	-482.33
0.3198,0.6802	-491.21
0.1500,0.8500	-482.31
0.2091,0.7909	-481.70
0.1394,0.8606	-482.40
0.1687,0.8313	-480.76
0.1462,0.8538	-494.68
0.3212,0.6788	-488.98
0.1367,0.8633	-486.12
0.1959,0.8041	-484.16
0.1224,0.8776	-488.67
0.1374,0.8626	-487.94
0.1686,0.8314	-482.36
0.3233,0.6767	-489.04
0.1555,0.8445	-490.76
0.2243,0.7757	-490.86
0.1251,0.8749	-482.68
0.1705,0.8295	-483.96
0.1793,0.8207	-487.04
0.3470,0.6530	-493.46
0.1635,0.8365	-480.69
0.2441,0.7559	-483.99
0.1580,0.8420	-485.65
0.1749,0.8251	-483.97
0.1900,0.8100	-482.64
0.3988,0.6012	-492.02
0.1709,0.8291	-482.38
0.2369,0.7631	-488.45
0.1649,0.8351	-485.58
0.1535,0.8465	-480.60
0.2103,0.7897	-481.74
0.4096,0.5904	-492.64
0.1616,0.8384	-488.90
0.1923,0.8077	-485.55
0.2012,0.7988	-491.13
0.1585,0.8415	-482.31
0.1984,0.8016	-486.99
0.4133,0.5867	-491.66
0.1881,0.8119	-482.60
0.1881,0.8119	-482.60
0.1819,0.8181	-481.01
0.1552,0.8448	-482.30
0.2163,0.7837	-484.49
0.3574,0.6426	-489.38
0.1710,0.8290	-482.38
0.1895,0.8105	-484.08
0.1600,0.8400	-483.97
0.1797,0.8203	-482.48
0.2406,0.7594	-486.18
0.3285,0.6715	-492.75
0.2003,0.7997	-482.84
0.1866,0.8134	-484.05
0.1663,0.8337	-480.73
0.1864,0.8136	-487.00
0.2417,0.7583	-485.06
0.3398,0.6602	-488.14
0.1948,0.8052	-485.56
0.1880,0.8120	-488.45
0.1507,0.8493	-482.31
0.2106,0.7894	-487.03
0.2596,0.7404	-486.58
0.3728,0.6272	-490.93
0.2122,0.7878	-485.73
0.1751,0.8249	-480.87
0.1396,0.8604	-484.21
0.2186,0.7814	-487.09
0.2782,0.7218	-487.99
0.3335,0.6665	-490.69
0.2211,0.7789	-482.07
0.1797,0.8203	-484.00
0.1219,0.8781	-484.75
0.2498,0.7502	-484.17
0.2704,0.7296	-486.84
0.2616,0.7384	-487.67
0.1995,0.8005	-485.60
0.1426,0.8574	-484.15
0.1532,0.8468	-485.72
0.2439,0.7561	-483.99
0.2515,0.7485	-485.32
0.2539,0.7461	-483.22
0.2143,0.7857	-480.56
0.1643,0.8357	-480.70
0.1719,0.8281	-483.96
0.2769,0.7231	-488.92
0.2486,0.7514	-483.02
0.2175,0.7825	-483.24
0.2290,0.7710	-484.76
0.1989,0.8011	-485.59
0.1577,0.8423	-480.63
0.2716,0.7284	-487.86
0.2555,0.7445	-484.35
0.2332,0.7668	-484.86
0.2125,0.7875	-480.49
0.1821,0.8179	-485.52
0.1835,0.8165	-481.04
0.2984,0.7016	-490.14
0.2680,0.7320	-488.79
0.2140,0.7860	-484.45
0.2161,0.7839	-483.20
0.1628,0.8372	-482.32
0.1885,0.8115	-484.07
0.2595,0.7405	-485.53
0.2300,0.7700	-487.20
0.2289,0.7711	-484.76
0.2368,0.7632	-487.28
0.1520,0.8480	-480.59
0.1528,0.8472	-482.30
0.2490,0.7510	-488.56
0.2530,0.7470	-486.44
0.2051,0.7949	-481.58
0.2087,0.7913	-485.69
0.1481,0.8519	-480.57
0.1367,0.8633	-484.28
0.2637,0.7363	-488.73
0.2743,0.7257	-484.99
0.2211,0.7789	-489.63
0.2265,0.7735	-483.48
0.1478,0.8522	-484.07
0.1655,0.8345	-487.19
0.2232,0.7768	-485.88
0.2906,0.7094	-486.47
0.2054,0.7946	-484.30
0.1918,0.8082	-481.23
0.1173,0.8827	-484.96
0.2005,0.7995	-489.76
0.2377,0.7623	-482.63
0.2458,0.7542	-486.29
0.1690,0.8310	-485.55
0.1787,0.8213	-485.52
0.1430,0.8570	-484.15
0.2185,0.7815	-483.26
0.2157,0.7843	-487.06
0.2764,0.7236	-485.06
0.1477,0.8523	-482.32
0.2053,0.7947	-484.30
0.1394,0.8606	-484.22
0.1878,0.8122	-486.99
0.1802,0.8198	-487.03
0.2184,0.7816	-488.36
0.1407,0.8593	-484.19
0.1992,0.8008	-485.59
0.2036,0.7964	-484.27
0.2201,0.7799	-487.10
0.1572,0.8428	-482.30
0.2406,0.7594	-486.18
0.1480,0.8520	-482.32
0.1733,0.8267	-483.96
0.2078,0.7922	-488.35
0.1706,0.8294	-482.38
0.1555,0.8445	-485.69
0.2469,0.7531	-486.31
0.1694,0.8306	-480.77
0.1776,0.8224	-480.92
0.2203,0.7797	-483.31
0.2016,0.7984	-482.86
0.1448,0.8552	-480.57
0.1968,0.8032	-486.98
0.1669,0.8331	-483.95
0.1963,0.8037	-485.57
0.2309,0.7691	-490.82
0.2009,0.7991	-484.23
0.1312,0.8688	-486.31
0.1779,0.8221	-482.45
0.1524,0.8476	-482.31
0.1755,0.8245	-483.97
0.2177,0.7823	-484.52
0.1694,0.8306	-482.36
0.1071,0.8929	-483.42
0.2209,0.7791	-482.06
0.1784,0.8216	-488.57
0.2019,0.7981	-480.12
0.2125,0.7875	-483.11
0.1542,0.8458	-480.60
0.1337,0.8663	-482.48
0.2009,0.7991	-484.23
0.1478,0.8522	-482.32
0.2244,0.7756	-485.90
0.1981,0.8019	-484.19
0.1725,0.8275	-482.39
0.1350,0.8650	-482.46
0.2368,0.7632	-488.45
0.1455,0.8545	-482.34
0.2690,0.7310	-486.81
0.1548,0.8452	-485.70
0.1934,0.8066	-486.98
0.1534,0.8466	-480.60
0.2464,0.7536	-485.18
0.1923,0.8077	-481.24
0.2375,0.7625	-490.79
0.1337,0.8663	-486.22
0.1731,0.8269	-485.53
0.1654,0.8346	-483.95
0.2578,0.7422	-485.49
0.2149,0.7851	-489.65
0.2032,0.7968	-484.26
0.1266,0.8734	-486.50
0.1571,0.8429	-478.94
0.1348,0.8652	-478.75
0.2708,0.7292	-485.86
0.2393,0.7607	-486.16
0.1937,0.8063	-484.13
0.1274,0.8726	-480.70
0.1703,0.8297	-483.96
0.1522,0.8478	-482.31
0.2115,0.7885	-487.04
0.2526,0.7474	-485.34
0.1920,0.8080	-488.42
0.1651,0.8349	-487.20
0.1919,0.8081	-486.98
0.1742,0.8258	-485.52
0.2126,0.7874	-483.11
0.2214,0.7786	-490.88
0.2010,0.7990	-485.61
0.1716,0.8284	-483.96
0.1652,0.8348	-482.33
0.1639,0.8361	-487.21
0.2085,0.7915	-487.02
0.2182,0.7818	-483.25
0.2058,0.7942	-484.31
0.1550,0.8450	-478.91
0.1662,0.8338	-485.57
0.1422,0.8578	-478.77
0.1784,0.8216	-480.93
0.2228,0.7772	-484.63
0.2442,0.7558	-488.51
0.1800,0.8200	-487.03
0.1578,0.8422	-482.30
0.1287,0.8713	-484.50
0.1630,0.8370	-482.32
0.1831,0.8169	-481.03
0.2407,0.7593	-483.89
0.1953,0.8047	-482.73
0.1713,0.8287	-482.38
0.1541,0.8459	-485.71
0.1592,0.8408	-483.97
0.2126,0.7874	-485.73
0.2212,0.7788	-485.85
0.2179,0.7821	-484.52
0.1971,0.8029	-482.77
0.1375,0.8625	-489.77
0.1214,0.8786	-486.75
0.2334,0.7666	-487.24
0.2189,0.7811	-485.82
0.2643,0.7357	-484.65
0.1983,0.8017	-489.78
0.1282,0.8718	-482.60
0.1264,0.8736	-480.71
0.2146,0.7854	-488.35
0.2129,0.7871	-484.43
0.2736,0.7264	-487.90
0.2164,0.7836	-484.50
0.1137,0.8863	-483.09
0.1257,0.8743	-480.73
0.2237,0.7763	-487.13
0.2040,0.7960	-487.00
0.2728,0.7272	-488.86
0.2367,0.7633	-488.45
0.1258,0.8742	-482.66
0.1292,0.8708	-484.48
0.2070,0.7930	-489.70
0.1610,0.8390	-483.96
0.2918,0.7082	-490.05
0.1833,0.8167	-485.52
0.1287,0.8713	-484.50
0.1132,0.8868	-483.11
0.1973,0.8027	-484.18
0.1507,0.8493	-482.31
0.2794,0.7206	-487.06
0.1663,0.8337	-480.73
0.1436,0.8564	-484.14
0.1275,0.8725	-480.70
0.1701,0.8299	-479.20
0.1559,0.8441	-489.06
0.2569,0.7431	-487.59
0.1406,0.8594	-482.38
0.1252,0.8748	-484.62
0.1156,0.8844	-485.05
0.1889,0.8111	-485.53
0.1370,0.8630	-482.43
0.2275,0.7725	-485.95
0.1511,0.8489	-478.86
0.1404,0.8596	-486.01
0.1257,0.8743	-484.61
0.2083,0.7917	-483.01
0.1379,0.8621	-480.58
0.2126,0.7874	-485.73
0.1492,0.8508	-484.06
0.1636,0.8364	-483.96
0.1127,0.8873	-485.20
0.2048,0.7952	-488.36
0.1587,0.8413	-478.97
0.1865,0.8135	-481.10
0.1549,0.8451	-487.39
0.1410,0.8590	-482.38
0.1392,0.8608	-482.40
0.2351,0.7649	-486.08
0.1614,0.8386	-485.61
0.1887,0.8113	-485.53
0.1375,0.8625	-482.42
0.1767,0.8233	-480.90
0.1359,0.8641	-486.15
0.2523,0.7477	-485.34
0.1630,0.8370	-483.96
0.1968,0.8032	-485.58
0.1179,0.8821	-480.91
0.1525,0.8475	-480.59
0.1289,0.8711	-486.41
0.2275,0.7725	-483.50
0.1559,0.8441	-485.68
0.2078,0.7922	-483.00
0.1130,0.8870	-485.19
0.1749,0.8251	-483.97
0.1618,0.8382	-485.61
0.2214,0.7786	-485.85
0.1673,0.8327	-483.95
0.2116,0.7884	-484.40
0.0975,0.9025	-481.85
0.2088,0.7912	-483.02
0.1521,0.8479	-482.31
0.2004,0.7996	-488.37
0.1590,0.8410	-485.64
0.2235,0.7765	-485.89
0.0929,0.9071	-479.90
0.2087,0.7913	-485.69
0.1408,0.8592	-486.00
0.2169,0.7831	-487.07
0.1508,0.8492	-482.31
0.2009,0.7991	-482.85
0.0864,0.9136	-485.11
0.1796,0.8204	-485.51
0.1331,0.8669	-482.50
0.2452,0.7548	-486.27
0.1943,0.8057	-489.83
0.1965,0.8035	-485.57
0.0935,0.9065	-482.13
0.1862,0.8138	-487.00
0.1337,0.8663	-480.61
0.2272,0.7728	-484.72
0.1901,0.8099	-485.54
0.1929,0.8071	-482.69
0.0941,0.9059	-484.35
0.1568,0.8432	-482.30
0.1585,0.8415	-482.31
0.2412,0.7588	-486.19
0.1792,0.8208	-485.51
0.2165,0.7835	-489.64
0.0884,0.9116	-484.89
0.1699,0.8301	-493.47
0.1767,0.8233	-487.06
0.2090,0.7910	-484.36
0.1835,0.8165	-484.02
0.2386,0.7614	-489.63
0.0996,0.9004	-483.91
0.1755,0.8245	-483.97
0.1906,0.8094	-482.65
0.2297,0.7703	-487.20
0.2329,0.7671	-487.23
0.2316,0.7684	-482.42
0.1112,0.8888	-485.29
0.1910,0.8090	-484.10
0.1797,0.8203	-480.96
0.2572,0.7428	-490.77
0.2367,0.7633	-484.94
0.2691,0.7309	-488.81
0.1425,0.8575	-478.77
0.1840,0.8160	-484.03
0.1843,0.8157	-485.52
0.2562,0.7438	-484.38
0.2324,0.7676	-487.23
0.2473,0.7527	-488.54
0.1514,0.8486	-485.75
0.2006,0.7994	-485.61
0.1823,0.8177	-484.02
0.2785,0.7215	-489.90
0.2555,0.7445	-484.35
0.2086,0.7914	-484.35
0.1596,0.8404	-482.31
0.1785,0.8215	-482.46
0.1423,0.8577	-484.16
0.2378,0.7622	-487.30
0.1811,0.8189	-488.53
0.2205,0.7795	-483.31
0.1665,0.8335	-482.34
0.1624,0.8376	-480.68
0.1488,0.8512	-484.06
0.2699,0.7301	-486.83
0.1614,0.8386	-482.31
0.2448,0.7552	-486.27
0.1670,0.8330	-485.56
0.1449,0.8551	-478.79
0.1833,0.8167	-482.53
0.3681,0.6319	-492.97
0.1806,0.8194	-485.51
0.2486,0.7514	-487.45
0.1428,0.8572	-485.94
0.1284,0.8716	-480.68
0.2001,0.7999	-482.83
0.3613,0.6387	-491.78
0.1741,0.8259	-485.52
0.2194,0.7806	-485.82
0.1216,0.8784	-484.77
0.1165,0.8835	-480.95
0.1971,0.8029	-486.98
0.3270,0.6730	-489.13
0.1642,0.8358	-483.96
0.2097,0.7903	-484.37
0.1165,0.8835	-485.00
0.1267,0.8733	-482.64
0.2590,0.7410	-486.57
0.3085,0.6915	-490.28
0.1707,0.8293	-480.80
0.1798,0.8202	-484.00
0.1303,0.8697	-482.55
0.1333,0.8667	-484.36
0.2559,0.7441	-489.70
0.2335,0.7665	-486.05
0.1904,0.8096	-479.75
0.1848,0.8152	-485.52
0.1205,0.8795	-482.82
0.1314,0.8686	-482.53
0.2307,0.7693	-483.59
0.1969,0.8031	-485.58
0.1910,0.8090	-485.54
0.1736,0.8264	-487.09
0.1201,0.8799	-480.85
0.1275,0.8725	-480.69
0.2208,0.7792	-487.11
0.1885,0.8115	-481.15
0.2047,0.7953	-481.57
0.1923,0.8077	-484.11
0.1336,0.8664	-482.48
0.1335,0.8665	-484.36
0.2255,0.7745	-487.15
0.2482,0.7518	-483.01
0.2190,0.7810	-484.55
0.1871,0.8129	-489.93
0.1616,0.8384	-480.67
0.1294,0.8706	-482.57
0.2946,0.7054	-488.34
0.2461,0.7539	-485.17
0.1974,0.8026	-488.39
0.1938,0.8062	-488.41
0.1369,0.8631	-482.43
0.1455,0.8545	-478.80
0.3014,0.6986	-491.02
0.2103,0.7897	-487.03
0.2310,0.7690	-486.01
0.1870,0.8130	-484.06
0.1349,0.8651	-480.60
0.1991,0.8009	-481.42
0.2744,0.7256	-487.91
0.1671,0.8329	-485.56
0.2251,0.7749	-488.38
0.1687,0.8313	-485.55
0.1282,0.8718	-484.52
0.1918,0.8082	-485.55
0.2820,0.7180	-489.00
0.1898,0.8102	-491.34
0.1965,0.8035	-485.57
0.1492,0.8508	-484.06
0.1354,0.8646	-484.31
0.1722,0.8278	-482.39
0.2223,0.7777	-487.12
0.1453,0.8547	-487.65
0.2208,0.7792	-488.37
0.1424,0.8576	-482.36
0.1424,0.8576	-482.36
0.1593,0.8407	-483.97
0.1757,0.8243	-482.43
0.1527,0.8473	-482.30
0.2278,0.7722	-485.95
0.1434,0.8566	-478.78
0.1324,0.8676	-486.27
0.1616,0.8384	-482.32
0.2017,0.7983	-486.99
0.1406,0.8594	-482.38
0.2363,0.7637	-487.28
0.1447,0.8553	-485.89
0.1501,0.8499	-480.58
0.1802,0.8198	-487.03
0.2061,0.7939	-485.66
0.1555,0.8445	-480.61
0.2687,0.7313	-489.80
0.1579,0.8421	-492.35
0.1200,0.8800	-478.86
0.2179,0.7821	-484.52
0.2101,0.7899	-485.70
0.2136,0.7864	-484.44
0.2377,0.7623	-483.80
0.1597,0.8403	-482.31
0.1241,0.8759	-492.48
0.2614,0.7386	-486.63
0.2087,0.7913	-485.69
0.1995,0.8005	-481.43
0.2730,0.7270	-487.88
0.1793,0.8207	-488.56
0.1224,0.8776	-478.82
0.2399,0.7601	-486.17
0.2193,0.7807	-485.82
0.1911,0.8089	-485.54
0.3373,0.6627	-490.08
0.2178,0.7822	-484.52
0.1295,0.8705	-482.57
0.2565,0.7435	-486.52
0.1991,0.8009	-482.81
0.1810,0.8190	-485.51
0.2900,0.7100	-490.03
0.2222,0.7778	-483.36
0.1149,0.8851	-483.04
0.2935,0.7065	-491.83
0.1718,0.8282	-482.39
0.2153,0.7847	-485.77
0.2631,0.7369	-487.70
0.2030,0.7970	-482.89
0.1207,0.8793	-482.82
0.2792,0.7208	-490.85
0.1602,0.8398	-480.65
0.2498,0.7502	-486.37
0.2559,0.7441	-487.57
0.1939,0.8061	-491.26
0.1191,0.8809	-484.87
0.2513,0.7487	-487.49
0.1641,0.8359	-479.07
0.3007,0.6993	-488.48
0.2393,0.7607	-488.47
0.1825,0.8175	-481.02
0.0966,0.9034	-481.91
0.2401,0.7599	-485.02
0.2056,0.7944	-484.30
0.3135,0.6865	-489.57
0.2228,0.7772	-490.87
0.2206,0.7794	-487.10
0.1175,0.8825	-478.90
0.2557,0.7443	-483.29
0.2759,0.7241	-487.94
0.2740,0.7260	-490.83
0.2133,0.7867	-487.05
0.1913,0.8087	-484.10
0.1294,0.8706	-488.29
0.2996,0.7004	-488.46
0.2503,0.7497	-487.48
0.3094,0.6906	-490.29
0.1949,0.8051	-484.14
0.1929,0.8071	-481.26
0.1366,0.8634	-480.59
0.2782,0.7218	-489.89
0.2521,0.7479	-484.24
0.3171,0.6829	-489.65
0.2023,0.7977	-482.88
0.1845,0.8155	-481.06
0.1516,0.8484	-478.86
0.2588,0.7412	-485.52
0.2977,0.7023	-490.13
0.3157,0.6843	-492.71
0.1891,0.8109	-484.08
0.2360,0.7640	-487.27
0.1280,0.8720	-488.36
0.2202,0.7798	-488.36
0.2948,0.7052	-486.60
0.3171,0.6829	-491.18
0.1695,0.8305	-480.78
0.2271,0.7729	-487.17
0.1188,0.8812	-482.89
0.2501,0.7499	-486.38
0.2849,0.7151	-489.05
0.3542,0.6458	-491.67
0.1964,0.8036	-482.76
0.2111,0.7889	-483.08
0.1216,0.8784	-486.75
0.2641,0.7359	-488.74
0.2879,0.7121	-487.29
0.3422,0.6578	-490.84
0.1724,0.8276	-487.10
0.2079,0.7921	-483.00
0.1414,0.8586	-485.98
0.2435,0.7565	-485.11
0.3082,0.6918	-490.28
0.3320,0.6680	-489.96
0.1595,0.8405	-485.63
0.2760,0.7240	-489.87
0.1573,0.8427	-482.30
0.2423,0.7577	-487.36
0.2461,0.7539	-486.29
0.3004,0.6996	-486.78
0.1657,0.8343	-488.80
0.2823,0.7177	-489.94
0.1525,0.8475	-482.30
0.2191,0.7809	-488.36
0.3002,0.6998	-490.16
0.3320,0.6680	-487.86
0.1762,0.8238	-483.98
0.2356,0.7644	-490.80
0.1216,0.8784	-482.79
0.1891,0.8109	-484.08
0.3034,0.6966	-486.88
0.3239,0.6761	-490.52
0.1762,0.8238	-482.43
0.2485,0.7515	-486.34
0.1155,0.8845	-483.02
0.1804,0.8196	-482.49
0.3337,0.6663	-489.31
0.3196,0.6804	-489.70
0.1930,0.8070	-485.55
0.2213,0.7787	-487.11
0.1249,0.8751	-482.69
0.2057,0.7943	-484.30
0.3250,0.6750	-489.81
0.3547,0.6453	-491.08
0.1963,0.8037	-488.39
0.1981,0.8019	-485.59
0.1172,0.8828	-480.93
0.2120,0.7880	-487.04
0.3353,0.6647	-491.40
0.3388,0.6612	-491.45
0.1734,0.8266	-482.40
0.1923,0.8077	-485.55
0.1118,0.8882	-479.04
0.1757,0.8243	-487.07
0.2550,0.7450	-484.34
0.3454,0.6546	-490.90
0.1729,0.8271	-487.09
0.1950,0.8050	-482.73
0.1034,0.8966	-483.65
0.1462,0.8538	-482.33
0.2648,0.7352	-489.77
0.3547,0.6453	-491.68
0.1547,0.8453	-485.70
0.2261,0.7739	-490.85
0.1206,0.8794	-484.81
0.1615,0.8385	-482.32
0.2286,0.7714	-485.97
0.3562,0.6438	-491.11
0.1493,0.8507	-487.54
0.2100,0.7900	-487.03
0.1212,0.8788	-482.80
0.1978,0.8022	-489.78
0.2395,0.7605	-483.85
0.3492,0.6508	-489.11
0.1502,0.8498	-482.31
0.2250,0.7750	-482.20
0.1395,0.8605	-480.58
0.1717,0.8283	-480.81
0.2178,0.7822	-483.24
0.3165,0.6835	-492.71
0.1296,0.8704	-488.28
0.1984,0.8016	-485.59
0.1582,0.8418	-482.31
0.2051,0.7949	-482.94
0.2049,0.7951	-484.29
0.2728,0.7272	-485.92
0.1240,0.8760	-480.76
0.1857,0.8143	-482.57
0.1599,0.8401	-482.31
0.1957,0.8043	-481.33
0.2300,0.7700	-485.99
0.3056,0.6944	-489.42
0.1382,0.8618	-482.41
0.2023,0.7977	-484.25
0.1457,0.8543	-482.34
0.1813,0.8187	-490.04
0.2483,0.7517	-488.55
0.2772,0.7228	-485.09
0.1496,0.8504	-487.53
0.1766,0.8234	-482.44
0.1436,0.8564	-482.35
0.2060,0.7940	-487.01
0.2772,0.7228	-487.01
0.2359,0.7641	-489.62
0.1369,0.8631	-480.59
0.1778,0.8222	-488.58
0.1292,0.8708	-484.48
0.2103,0.7897	-488.35
0.2877,0.7123	-490.00
0.2065,0.7935	-484.32
0.1521,0.8479	-485.74
0.1816,0.8184	-484.01
0.1259,0.8741	-478.78
0.1865,0.8135	-481.10
0.2738,0.7262	-486.92
0.2068,0.7932	-482.98
0.1523,0.8477	-485.74
0.1774,0.8226	-483.98
0.1780,0.8220	-480.93
0.1640,0.8360	-487.21
0.2618,0.7382	-486.63
0.2334,0.7666	-487.24
0.1552,0.8448	-484.00
0.2009,0.7991	-484.23
0.2128,0.7872	-483.12
0.1677,0.8323	-482.35
0.2518,0.7482	-486.41
0.2114,0.7886	-487.04
0.1907,0.8093	-484.10
0.1784,0.8216	-482.46
0.2008,0.7992	-482.85
0.1979,0.8021	-488.38
0.2524,0.7476	-487.51
0.2003,0.7997	-482.84
0.2238,0.7762	-483.40
0.2309,0.7691	-487.21
0.1897,0.8103	-485.54
0.2220,0.7780	-484.61
0.2357,0.7643	-482.56
0.1873,0.8127	-484.06
0.2150,0.7850	-487.06
0.1892,0.8108	-481.17
0.1603,0.8397	-483.97
0.2660,0.7340	-490.79
0.2386,0.7614	-487.31
0.2015,0.7985	-484.24
0.2444,0.7556	-485.13
0.1700,0.8300	-482.37
0.1467,0.8533	-485.85
0.2890,0.7110	-487.32
0.2161,0.7839	-487.07
0.1775,0.8225	-487.05
