#isoforms=['ENSG00000101294.SE.1.A.up_ENSG00000101294.SE.1.A.SE1_ENSG00000101294.SE.1.A.dn','ENSG00000101294.SE.1.B.up_ENSG00000101294.SE.1.B.dn']	exon_lens=('ENSG00000101294.SE.1.A.up',99),('ENSG00000101294.SE.1.A.SE1',376),('ENSG00000101294.SE.1.A.dn',89),('ENSG00000101294.SE.1.B.up',99),('ENSG00000101294.SE.1.B.dn',89)	iters=5000	burn_in=500	lag=10	percent_accept=98.14	proposal_type=drift	counts=(0,0):587,(1,0):48	assigned_counts=0:48	chrom=chr20	strand=+	mRNA_starts=31527484,31527484	mRNA_ends=31545035,31545035
sampled_psi	log_score
0.9028,0.0972	-295.69
0.8351,0.1649	-296.48
0.7978,0.2022	-296.97
0.7051,0.2949	-298.38
0.7672,0.2328	-297.40
0.8531,0.1469	-296.26
0.8618,0.1382	-296.15
0.8506,0.1494	-296.29
0.8013,0.1987	-296.92
0.7052,0.2948	-298.38
0.7609,0.2391	-297.49
0.8825,0.1175	-295.91
0.8716,0.1284	-296.04
0.8439,0.1561	-296.37
0.7336,0.2664	-297.91
0.7150,0.2850	-298.21
0.7256,0.2744	-298.04
0.8728,0.1272	-296.02
0.8665,0.1335	-296.10
0.8214,0.1786	-296.65
0.7771,0.2229	-297.26
0.8072,0.1928	-296.84
0.7358,0.2642	-297.88
0.8675,0.1325	-296.09
0.8727,0.1273	-296.02
0.7722,0.2278	-297.33
0.8251,0.1749	-296.61
0.8032,0.1968	-296.90
0.7891,0.2109	-297.09
0.8552,0.1448	-296.23
0.8497,0.1503	-296.30
0.7768,0.2232	-297.26
0.8401,0.1599	-296.42
0.7750,0.2250	-297.29
0.7650,0.2350	-297.43
0.8460,0.1540	-296.34
0.8424,0.1576	-296.39
0.8212,0.1788	-296.66
0.8231,0.1769	-296.63
0.7517,0.2483	-297.63
0.7321,0.2679	-297.93
0.8231,0.1769	-296.63
0.8250,0.1750	-296.61
0.8102,0.1898	-296.80
0.8083,0.1917	-296.83
0.7704,0.2296	-297.35
0.7111,0.2889	-298.28
0.8019,0.1981	-296.91
0.8058,0.1942	-296.86
0.8084,0.1916	-296.83
0.7788,0.2212	-297.23
0.7974,0.2026	-296.97
0.7385,0.2615	-297.83
0.8129,0.1871	-296.77
0.8385,0.1615	-296.44
0.8563,0.1437	-296.22
0.7626,0.2374	-297.47
0.7737,0.2263	-297.31
0.7461,0.2539	-297.72
0.8263,0.1737	-296.59
0.8561,0.1439	-296.22
0.8565,0.1435	-296.22
0.7540,0.2460	-297.60
0.7635,0.2365	-297.45
0.7640,0.2360	-297.45
0.8268,0.1732	-296.58
0.8256,0.1744	-296.60
0.8832,0.1168	-295.90
0.7638,0.2362	-297.45
0.8049,0.1951	-296.87
0.7474,0.2526	-297.70
0.8262,0.1738	-296.59
0.8436,0.1564	-296.37
0.8706,0.1294	-296.05
0.7681,0.2319	-297.39
0.8352,0.1648	-296.48
0.7710,0.2290	-297.35
0.7804,0.2196	-297.21
0.8383,0.1617	-296.44
0.8640,0.1360	-296.13
0.7752,0.2248	-297.28
0.8479,0.1521	-296.32
0.7945,0.2055	-297.01
0.8004,0.1996	-296.93
0.8462,0.1538	-296.34
0.8813,0.1187	-295.93
0.7906,0.2094	-297.07
0.8508,0.1492	-296.29
0.8222,0.1778	-296.64
0.7996,0.2004	-296.94
0.8422,0.1578	-296.39
0.8748,0.1252	-296.00
0.7390,0.2610	-297.83
0.8284,0.1716	-296.56
0.7988,0.2012	-296.95
0.7620,0.2380	-297.48
0.8698,0.1302	-296.06
0.8529,0.1471	-296.26
0.8008,0.1992	-296.93
0.8357,0.1643	-296.47
0.8483,0.1517	-296.32
0.7874,0.2126	-297.11
0.8764,0.1236	-295.98
0.8534,0.1466	-296.25
0.8528,0.1472	-296.26
0.8365,0.1635	-296.46
0.8653,0.1347	-296.11
0.8210,0.1790	-296.66
0.8439,0.1561	-296.37
0.8449,0.1551	-296.36
0.8389,0.1611	-296.43
0.8240,0.1760	-296.62
0.8551,0.1449	-296.23
0.8481,0.1519	-296.32
0.8411,0.1589	-296.40
0.8600,0.1400	-296.17
0.8293,0.1707	-296.55
0.7969,0.2031	-296.98
0.8600,0.1400	-296.17
0.8480,0.1520	-296.32
0.8412,0.1588	-296.40
0.8909,0.1091	-295.82
0.8249,0.1751	-296.61
0.8066,0.1934	-296.85
0.8408,0.1592	-296.41
0.8445,0.1555	-296.36
0.8301,0.1699	-296.54
0.9078,0.0922	-295.63
0.8408,0.1592	-296.41
0.7619,0.2381	-297.48
0.8258,0.1742	-296.60
0.8508,0.1492	-296.28
0.8353,0.1647	-296.48
0.8967,0.1033	-295.75
0.8376,0.1624	-296.45
0.7571,0.2429	-297.55
0.8160,0.1840	-296.72
0.8741,0.1259	-296.01
0.8462,0.1538	-296.34
0.8878,0.1122	-295.85
0.8224,0.1776	-296.64
0.7382,0.2618	-297.84
0.8567,0.1433	-296.21
0.8638,0.1362	-296.13
0.8604,0.1396	-296.17
0.8847,0.1153	-295.89
0.8296,0.1704	-296.55
0.7480,0.2520	-297.69
0.8661,0.1339	-296.10
0.8514,0.1486	-296.28
0.8612,0.1388	-296.16
0.8695,0.1305	-296.06
0.8206,0.1794	-296.67
0.7612,0.2388	-297.49
0.8689,0.1311	-296.07
0.8830,0.1170	-295.91
0.9037,0.0963	-295.68
0.8854,0.1146	-295.88
0.8435,0.1565	-296.37
0.6887,0.3113	-298.66
0.8722,0.1278	-296.03
0.8483,0.1517	-296.32
0.9177,0.0823	-295.52
0.8696,0.1304	-296.06
0.8518,0.1482	-296.27
0.6781,0.3219	-298.85
0.8764,0.1236	-295.98
0.8714,0.1286	-296.04
0.9309,0.0691	-295.39
0.8898,0.1102	-295.83
0.8471,0.1529	-296.33
0.6231,0.3769	-299.93
0.8886,0.1114	-295.84
0.8650,0.1350	-296.11
0.9341,0.0659	-295.35
0.8858,0.1142	-295.87
0.8259,0.1741	-296.60
0.6710,0.3290	-298.98
0.8708,0.1292	-296.05
0.8996,0.1004	-295.72
0.9155,0.0845	-295.55
0.8828,0.1172	-295.91
0.8008,0.1992	-296.93
0.6329,0.3671	-299.72
0.8593,0.1407	-296.18
0.9116,0.0884	-295.59
0.9272,0.0728	-295.42
0.8805,0.1195	-295.93
0.7902,0.2098	-297.07
0.6221,0.3779	-299.95
0.8484,0.1516	-296.31
0.9112,0.0888	-295.59
0.9185,0.0815	-295.52
0.8824,0.1176	-295.91
0.7906,0.2094	-297.07
0.6377,0.3623	-299.63
0.8696,0.1304	-296.06
0.9124,0.0876	-295.58
0.9088,0.0912	-295.62
0.8827,0.1173	-295.91
0.7758,0.2242	-297.28
0.6650,0.3350	-299.09
0.8997,0.1003	-295.72
0.8962,0.1038	-295.76
0.9157,0.0843	-295.55
0.8904,0.1096	-295.82
0.7978,0.2022	-296.97
0.6315,0.3685	-299.75
0.8996,0.1004	-295.72
0.8981,0.1019	-295.74
0.9257,0.0743	-295.44
0.8844,0.1156	-295.89
0.7802,0.2198	-297.21
0.5825,0.4175	-300.83
0.9060,0.0940	-295.65
0.8837,0.1163	-295.90
0.9146,0.0854	-295.56
0.8949,0.1051	-295.77
0.8152,0.1848	-296.74
0.6275,0.3725	-299.83
0.9203,0.0797	-295.50
0.8605,0.1395	-296.17
0.9114,0.0886	-295.59
0.8761,0.1239	-295.99
0.7778,0.2222	-297.25
0.6884,0.3116	-298.67
0.9204,0.0796	-295.50
0.8445,0.1555	-296.36
0.9223,0.0777	-295.48
0.8649,0.1351	-296.12
0.7287,0.2713	-297.99
0.6610,0.3390	-299.17
0.8817,0.1183	-295.92
0.8414,0.1586	-296.40
0.9257,0.0743	-295.44
0.8922,0.1078	-295.80
0.7541,0.2459	-297.60
0.7228,0.2772	-298.09
0.8876,0.1124	-295.85
0.8277,0.1723	-296.57
0.9104,0.0896	-295.60
0.8661,0.1339	-296.10
0.7659,0.2341	-297.42
0.6890,0.3110	-298.66
0.8861,0.1139	-295.87
0.8324,0.1676	-296.51
0.9035,0.0965	-295.68
0.8548,0.1452	-296.24
0.7759,0.2241	-297.27
0.7040,0.2960	-298.40
0.9041,0.0959	-295.67
0.8359,0.1641	-296.47
0.9038,0.0962	-295.67
0.8729,0.1271	-296.02
0.7751,0.2249	-297.29
0.7051,0.2949	-298.38
0.8996,0.1004	-295.72
0.8630,0.1370	-296.14
0.9076,0.0924	-295.63
0.8401,0.1599	-296.42
0.7938,0.2062	-297.02
0.7377,0.2623	-297.85
0.9063,0.0937	-295.65
0.8746,0.1254	-296.00
0.8994,0.1006	-295.72
0.8298,0.1702	-296.55
0.7925,0.2075	-297.04
0.7383,0.2617	-297.84
0.9048,0.0952	-295.66
0.8815,0.1185	-295.92
0.9039,0.0961	-295.67
0.8023,0.1977	-296.91
0.8096,0.1904	-296.81
0.7164,0.2836	-298.19
0.9139,0.0861	-295.56
0.9018,0.0982	-295.70
0.9037,0.0963	-295.68
0.7672,0.2328	-297.40
0.7848,0.2152	-297.15
0.7332,0.2668	-297.92
0.9281,0.0719	-295.41
0.8967,0.1033	-295.75
0.9084,0.0916	-295.62
0.7794,0.2206	-297.22
0.7942,0.2058	-297.02
0.7348,0.2652	-297.89
0.9276,0.0724	-295.42
0.8805,0.1195	-295.93
0.8981,0.1019	-295.74
0.7543,0.2457	-297.59
0.8209,0.1791	-296.66
0.7223,0.2777	-298.09
0.9287,0.0713	-295.41
0.9065,0.0935	-295.64
0.8836,0.1164	-295.90
0.8197,0.1803	-296.68
0.8286,0.1714	-296.56
0.7158,0.2842	-298.20
0.9349,0.0651	-295.34
0.9020,0.0980	-295.69
0.8431,0.1569	-296.38
0.8539,0.1461	-296.25
0.8027,0.1973	-296.90
0.6667,0.3333	-299.06
0.9401,0.0599	-295.29
0.8816,0.1184	-295.92
0.8067,0.1933	-296.85
0.8500,0.1500	-296.30
0.7888,0.2112	-297.09
0.6850,0.3150	-298.73
0.9486,0.0514	-295.21
0.8850,0.1150	-295.88
0.7915,0.2085	-297.05
0.8497,0.1503	-296.30
0.7753,0.2247	-297.28
0.6770,0.3230	-298.87
0.9539,0.0461	-295.15
0.9063,0.0937	-295.65
0.7847,0.2153	-297.15
0.8331,0.1669	-296.50
0.7706,0.2294	-297.35
0.6691,0.3309	-299.02
0.9577,0.0423	-295.11
0.8980,0.1020	-295.74
0.8207,0.1793	-296.66
0.8482,0.1518	-296.32
0.7627,0.2373	-297.47
0.7283,0.2717	-298.00
0.9614,0.0386	-295.08
0.8955,0.1045	-295.77
0.8398,0.1602	-296.42
0.8299,0.1701	-296.54
0.7504,0.2496	-297.65
0.7174,0.2826	-298.17
0.9610,0.0390	-295.08
0.8999,0.1001	-295.72
0.8462,0.1538	-296.34
0.8090,0.1910	-296.82
0.7913,0.2087	-297.06
0.7985,0.2015	-296.96
0.9581,0.0419	-295.11
0.9098,0.0902	-295.61
0.8340,0.1660	-296.49
0.8495,0.1505	-296.30
0.8494,0.1506	-296.30
0.8165,0.1835	-296.72
0.9500,0.0500	-295.19
0.9194,0.0806	-295.51
0.8444,0.1556	-296.36
0.8563,0.1437	-296.22
0.8367,0.1633	-296.46
0.8076,0.1924	-296.84
0.9550,0.0450	-295.14
0.9229,0.0771	-295.47
0.8334,0.1666	-296.50
0.8600,0.1400	-296.17
0.8359,0.1641	-296.47
0.7657,0.2343	-297.42
0.9616,0.0384	-295.08
0.9240,0.0760	-295.46
0.8217,0.1783	-296.65
0.8660,0.1340	-296.10
0.8333,0.1667	-296.50
0.7284,0.2716	-297.99
0.9616,0.0384	-295.08
0.9252,0.0748	-295.45
0.8372,0.1628	-296.45
0.8812,0.1188	-295.93
0.8473,0.1527	-296.33
0.7255,0.2745	-298.04
0.9673,0.0327	-295.02
0.9088,0.0912	-295.62
0.8659,0.1341	-296.10
0.8725,0.1275	-296.03
0.8377,0.1623	-296.45
0.7139,0.2861	-298.23
0.9759,0.0241	-294.94
0.9282,0.0718	-295.41
0.8535,0.1465	-296.25
0.8562,0.1438	-296.22
0.8283,0.1717	-296.57
0.6826,0.3174	-298.77
0.9779,0.0221	-294.92
0.9248,0.0752	-295.45
0.8363,0.1637	-296.46
0.8745,0.1255	-296.00
0.8255,0.1745	-296.60
0.7215,0.2785	-298.11
0.9717,0.0283	-294.98
0.9333,0.0667	-295.36
0.8575,0.1425	-296.20
0.8908,0.1092	-295.82
0.8402,0.1598	-296.41
0.7672,0.2328	-297.40
0.9742,0.0258	-294.95
0.9289,0.0711	-295.41
0.8467,0.1533	-296.34
0.8896,0.1104	-295.83
0.8238,0.1762	-296.62
0.7573,0.2427	-297.55
0.9803,0.0197	-294.90
0.9178,0.0822	-295.52
0.8222,0.1778	-296.64
0.9028,0.0972	-295.68
0.8080,0.1920	-296.83
0.7911,0.2089	-297.06
0.9804,0.0196	-294.90
0.9206,0.0794	-295.49
0.8577,0.1423	-296.20
0.9166,0.0834	-295.54
0.8196,0.1804	-296.68
0.7865,0.2135	-297.12
0.9804,0.0196	-294.90
0.9264,0.0736	-295.43
0.8410,0.1590	-296.40
0.9354,0.0646	-295.34
0.7929,0.2071	-297.03
0.8116,0.1884	-296.78
0.9787,0.0213	-294.91
0.9159,0.0841	-295.54
0.8087,0.1913	-296.82
0.9365,0.0635	-295.33
0.8203,0.1797	-296.67
0.7801,0.2199	-297.21
0.9829,0.0171	-294.87
0.9128,0.0872	-295.58
0.8227,0.1773	-296.64
0.9442,0.0558	-295.25
0.8100,0.1900	-296.80
0.7791,0.2209	-297.23
0.9819,0.0181	-294.88
0.9285,0.0715	-295.41
0.8183,0.1817	-296.69
0.9414,0.0586	-295.28
0.8315,0.1685	-296.52
0.7371,0.2629	-297.86
0.9777,0.0223	-294.92
0.9302,0.0698	-295.39
0.8288,0.1712	-296.56
0.9324,0.0676	-295.37
0.8333,0.1667	-296.50
0.7977,0.2023	-296.97
0.9802,0.0198	-294.90
0.9283,0.0717	-295.41
0.8342,0.1658	-296.49
0.9318,0.0682	-295.38
0.8563,0.1437	-296.22
0.8127,0.1873	-296.77
0.9796,0.0204	-294.90
0.9350,0.0650	-295.34
0.8397,0.1603	-296.42
0.9258,0.0742	-295.44
0.8486,0.1514	-296.31
0.8407,0.1593	-296.41
0.9788,0.0212	-294.91
0.9239,0.0761	-295.46
0.8423,0.1577	-296.39
0.9222,0.0778	-295.48
0.8702,0.1298	-296.05
0.8500,0.1500	-296.30
0.9813,0.0187	-294.89
0.9205,0.0795	-295.49
0.8110,0.1890	-296.79
0.9372,0.0628	-295.32
0.8740,0.1260	-296.01
0.8526,0.1474	-296.26
0.9823,0.0177	-294.88
0.9252,0.0748	-295.44
0.7993,0.2007	-296.95
0.9356,0.0644	-295.34
0.8785,0.1215	-295.96
0.8728,0.1272	-296.02
0.9842,0.0158	-294.86
0.9387,0.0613	-295.31
0.8300,0.1700	-296.54
0.9156,0.0844	-295.55
0.8937,0.1063	-295.79
0.8354,0.1646	-296.48
0.9872,0.0128	-294.83
0.9224,0.0776	-295.47
0.8222,0.1778	-296.64
0.9162,0.0838	-295.54
0.8910,0.1090	-295.82
0.8343,0.1657	-296.49
0.9891,0.0109	-294.81
0.9424,0.0576	-295.27
0.8535,0.1465	-296.25
0.9238,0.0762	-295.46
0.9212,0.0788	-295.49
0.8623,0.1377	-296.15
0.9908,0.0092	-294.80
0.9380,0.0620	-295.31
0.8717,0.1283	-296.04
0.9267,0.0733	-295.43
0.9234,0.0766	-295.46
0.8674,0.1326	-296.09
0.9906,0.0094	-294.80
0.9381,0.0619	-295.31
0.8911,0.1089	-295.81
0.9362,0.0638	-295.33
0.9404,0.0596	-295.29
0.8708,0.1292	-296.05
0.9921,0.0079	-294.79
0.9375,0.0625	-295.32
0.8784,0.1216	-295.96
0.9201,0.0799	-295.50
0.9424,0.0576	-295.27
0.8519,0.1481	-296.27
0.9917,0.0083	-294.79
0.9165,0.0835	-295.54
0.8718,0.1282	-296.03
0.9056,0.0944	-295.65
0.9297,0.0703	-295.40
0.8572,0.1428	-296.21
0.9913,0.0087	-294.79
0.9077,0.0923	-295.63
0.8765,0.1235	-295.98
0.9201,0.0799	-295.50
0.9255,0.0745	-295.44
0.8244,0.1756	-296.61
0.9924,0.0076	-294.78
0.9156,0.0844	-295.55
0.8785,0.1215	-295.96
0.9197,0.0803	-295.50
0.9336,0.0664	-295.36
0.8057,0.1943	-296.86
0.9920,0.0080	-294.79
0.9185,0.0815	-295.52
0.8697,0.1303	-296.06
0.9046,0.0954	-295.67
0.9181,0.0819	-295.52
0.8426,0.1574	-296.39
0.9916,0.0084	-294.79
0.9154,0.0846	-295.55
0.8802,0.1198	-295.94
0.8755,0.1245	-295.99
0.9188,0.0812	-295.51
0.8613,0.1387	-296.16
0.9913,0.0087	-294.79
0.9160,0.0840	-295.54
0.8692,0.1308	-296.06
0.8900,0.1100	-295.83
0.9288,0.0712	-295.41
0.8522,0.1478	-296.27
0.9915,0.0085	-294.79
0.8959,0.1041	-295.76
0.8481,0.1519	-296.32
0.9224,0.0776	-295.47
0.9230,0.0770	-295.47
0.8592,0.1408	-296.18
0.9933,0.0067	-294.78
0.8953,0.1047	-295.77
0.8315,0.1685	-296.52
0.9368,0.0632	-295.32
0.9280,0.0720	-295.42
0.8732,0.1268	-296.02
0.9915,0.0085	-294.79
0.8840,0.1160	-295.89
0.8200,0.1800	-296.67
0.9362,0.0638	-295.33
0.9105,0.0895	-295.60
0.9013,0.0987	-295.70
0.9906,0.0094	-294.80
0.8322,0.1678	-296.52
0.8374,0.1626	-296.45
0.9311,0.0689	-295.38
0.9266,0.0734	-295.43
0.9114,0.0886	-295.59
0.9904,0.0096	-294.80
0.8647,0.1353	-296.12
0.8274,0.1726	-296.58
0.9269,0.0731	-295.43
0.9227,0.0773	-295.47
0.9293,0.0707	-295.40
0.9934,0.0066	-294.78
0.8783,0.1217	-295.96
0.8269,0.1731	-296.58
0.9157,0.0843	-295.55
0.9235,0.0765	-295.46
0.9258,0.0742	-295.44
0.9936,0.0064	-294.77
0.8724,0.1276	-296.03
0.8586,0.1414	-296.19
0.9181,0.0819	-295.52
0.9163,0.0837	-295.54
0.9316,0.0684	-295.38
0.9942,0.0058	-294.77
0.8926,0.1074	-295.80
0.8811,0.1189	-295.93
0.9187,0.0813	-295.51
0.9336,0.0664	-295.36
0.9401,0.0599	-295.29
0.9943,0.0057	-294.77
0.8790,0.1210	-295.95
0.9100,0.0900	-295.61
0.9134,0.0866	-295.57
0.9292,0.0708	-295.40
0.9244,0.0756	-295.45
0.9956,0.0044	-294.75
0.8673,0.1327	-296.09
0.9061,0.0939	-295.65
0.9298,0.0702	-295.40
0.9326,0.0674	-295.37
0.9302,0.0698	-295.39
0.9951,0.0049	-294.76
0.8835,0.1165	-295.90
0.8959,0.1041	-295.76
0.9401,0.0599	-295.29
0.9386,0.0614	-295.31
0.9478,0.0522	-295.21
0.9952,0.0048	-294.76
0.8718,0.1282	-296.03
0.8676,0.1324	-296.08
0.9403,0.0597	-295.29
0.9360,0.0640	-295.33
0.9543,0.0457	-295.15
0.9950,0.0050	-294.76
0.8794,0.1206	-295.95
0.8810,0.1190	-295.93
0.9556,0.0444	-295.14
0.9415,0.0585	-295.28
0.9579,0.0421	-295.11
0.9955,0.0045	-294.76
0.8480,0.1520	-296.32
0.8901,0.1099	-295.83
0.9591,0.0409	-295.10
0.9296,0.0704	-295.40
0.9498,0.0502	-295.19
0.9954,0.0046	-294.76
0.8523,0.1477	-296.27
0.8660,0.1340	-296.10
0.9620,0.0380	-295.07
0.9181,0.0819	-295.52
0.9455,0.0545	-295.24
0.9959,0.0041	-294.75
0.8532,0.1468	-296.26
0.8540,0.1460	-296.25
0.9556,0.0444	-295.14
0.9161,0.0839	-295.54
0.9425,0.0575	-295.27
0.9960,0.0040	-294.75
0.8570,0.1430	-296.21
0.8577,0.1423	-296.20
0.9654,0.0346	-295.04
0.9105,0.0895	-295.60
0.9458,0.0542	-295.23
0.9955,0.0045	-294.76
0.8239,0.1761	-296.62
0.8806,0.1194	-295.93
0.9675,0.0325	-295.02
0.9235,0.0765	-295.46
0.9524,0.0476	-295.17
0.9967,0.0033	-294.74
0.8289,0.1711	-296.56
0.9016,0.0984	-295.70
0.9708,0.0292	-294.99
0.9223,0.0777	-295.48
0.9494,0.0506	-295.20
0.9968,0.0032	-294.74
0.8470,0.1530	-296.33
0.8939,0.1061	-295.78
0.9659,0.0341	-295.03
0.9261,0.0739	-295.44
0.9578,0.0422	-295.11
0.9968,0.0032	-294.74
0.8153,0.1847	-296.73
0.8834,0.1166	-295.90
0.9663,0.0337	-295.03
0.9227,0.0773	-295.47
0.9591,0.0409	-295.10
0.9972,0.0028	-294.74
0.7991,0.2009	-296.95
0.8869,0.1131	-295.86
0.9707,0.0293	-294.99
0.9288,0.0712	-295.41
0.9468,0.0532	-295.22
0.9968,0.0032	-294.74
0.7634,0.2366	-297.46
0.9015,0.0985	-295.70
0.9668,0.0332	-295.03
0.9282,0.0718	-295.41
0.9485,0.0515	-295.21
0.9965,0.0035	-294.75
0.7966,0.2034	-296.98
0.9132,0.0868	-295.57
0.9627,0.0373	-295.07
0.9336,0.0664	-295.36
0.9457,0.0543	-295.23
0.9967,0.0033	-294.74
0.7618,0.2382	-297.48
0.9185,0.0815	-295.52
0.9626,0.0374	-295.07
0.9296,0.0704	-295.40
0.9559,0.0441	-295.13
0.9963,0.0037	-294.75
0.7792,0.2208	-297.23
0.9197,0.0803	-295.50
0.9521,0.0479	-295.17
0.9300,0.0700	-295.39
0.9596,0.0404	-295.10
0.9971,0.0029	-294.74
0.7735,0.2265	-297.31
0.9193,0.0807	-295.51
0.9625,0.0375	-295.07
0.9259,0.0741	-295.44
0.9643,0.0357	-295.05
0.9969,0.0031	-294.74
0.7988,0.2012	-296.95
0.9122,0.0878	-295.58
0.9612,0.0388	-295.08
0.9386,0.0614	-295.31
0.9714,0.0286	-294.98
0.9957,0.0043	-294.75
0.7731,0.2269	-297.31
0.9220,0.0780	-295.48
0.9643,0.0357	-295.05
0.9293,0.0707	-295.40
0.9734,0.0266	-294.96
0.9957,0.0043	-294.75
0.8143,0.1857	-296.75
0.9201,0.0799	-295.50
0.9464,0.0536	-295.23
0.9135,0.0865	-295.57
0.9775,0.0225	-294.92
0.9963,0.0037	-294.75
0.8424,0.1576	-296.39
0.9352,0.0648	-295.34
0.9280,0.0720	-295.42
0.9132,0.0868	-295.57
0.9783,0.0217	-294.92
0.9954,0.0046	-294.76
0.8457,0.1543	-296.35
0.9345,0.0655	-295.35
0.9385,0.0615	-295.31
0.9099,0.0901	-295.61
0.9777,0.0223	-294.92
0.9950,0.0050	-294.76
0.8340,0.1660	-296.49
0.9357,0.0643	-295.34
0.9584,0.0416	-295.11
0.9045,0.0955	-295.67
0.9768,0.0232	-294.93
0.9946,0.0054	-294.76
0.8282,0.1718	-296.57
0.9448,0.0552	-295.24
0.9600,0.0400	-295.09
0.8958,0.1042	-295.76
0.9788,0.0212	-294.91
0.9951,0.0049	-294.76
0.8348,0.1652	-296.48
0.9485,0.0515	-295.21
0.9559,0.0441	-295.13
0.9002,0.0998	-295.71
0.9782,0.0218	-294.92
0.9945,0.0055	-294.76
0.8529,0.1471	-296.26
0.9577,0.0423	-295.11
0.9618,0.0382	-295.08
0.9019,0.0981	-295.69
0.9823,0.0177	-294.88
0.9944,0.0056	-294.77
0.8020,0.1980	-296.91
0.9521,0.0479	-295.17
0.9671,0.0329	-295.02
0.9165,0.0835	-295.54
0.9829,0.0171	-294.87
0.9939,0.0061	-294.77
0.8029,0.1971	-296.90
0.9570,0.0430	-295.12
0.9731,0.0269	-294.97
0.9389,0.0611	-295.30
0.9842,0.0158	-294.86
0.9937,0.0063	-294.77
0.7960,0.2040	-296.99
0.9494,0.0506	-295.20
0.9781,0.0219	-294.92
0.9421,0.0579	-295.27
0.9830,0.0170	-294.87
0.9938,0.0062	-294.77
0.7827,0.2173	-297.18
0.9343,0.0657	-295.35
0.9787,0.0213	-294.91
0.9479,0.0521	-295.21
0.9844,0.0156	-294.86
0.9914,0.0086	-294.79
0.7754,0.2246	-297.28
0.9396,0.0604	-295.30
0.9760,0.0240	-294.94
0.9430,0.0570	-295.26
0.9850,0.0150	-294.85
0.9926,0.0074	-294.78
0.7907,0.2093	-297.07
0.9314,0.0686	-295.38
0.9834,0.0166	-294.87
0.9335,0.0665	-295.36
0.9823,0.0177	-294.88
0.9921,0.0079	-294.79
0.7942,0.2058	-297.02
0.9309,0.0691	-295.39
0.9775,0.0225	-294.92
0.9407,0.0593	-295.28
0.9829,0.0171	-294.87
0.9928,0.0072	-294.78
0.8032,0.1968	-296.90
0.9347,0.0653	-295.35
0.9767,0.0233	-294.93
0.9406,0.0594	-295.29
0.9854,0.0146	-294.85
0.9927,0.0073	-294.78
0.8079,0.1921	-296.83
0.9196,0.0804	-295.50
0.9774,0.0226	-294.92
0.9331,0.0669	-295.36
0.9853,0.0147	-294.85
0.9943,0.0057	-294.77
0.7458,0.2542	-297.72
0.9225,0.0775	-295.47
0.9799,0.0201	-294.90
0.9000,0.1000	-295.72
0.9838,0.0162	-294.86
0.9951,0.0049	-294.76
0.7962,0.2038	-296.99
0.9226,0.0774	-295.47
0.9782,0.0218	-294.92
0.9006,0.0994	-295.71
0.9808,0.0192	-294.89
0.9945,0.0055	-294.77
0.8397,0.1603	-296.42
0.9299,0.0701	-295.40
0.9812,0.0188	-294.89
0.9193,0.0807	-295.51
0.9846,0.0154	-294.86
0.9956,0.0044	-294.75
0.8560,0.1440	-296.22
0.9172,0.0828	-295.53
0.9825,0.0175	-294.88
0.8916,0.1084	-295.81
0.9855,0.0145	-294.85
0.9951,0.0049	-294.76
0.8721,0.1279	-296.03
0.9287,0.0713	-295.41
0.9853,0.0147	-294.85
0.9090,0.0910	-295.62
0.9826,0.0174	-294.88
0.9934,0.0066	-294.77
0.8804,0.1196	-295.94
0.9134,0.0866	-295.57
0.9868,0.0132	-294.84
0.8998,0.1002	-295.72
0.9799,0.0201	-294.90
0.9937,0.0063	-294.77
0.8923,0.1077	-295.80
0.9319,0.0681	-295.37
0.9870,0.0130	-294.83
0.9029,0.0971	-295.68
0.9790,0.0210	-294.91
0.9928,0.0072	-294.78
0.9169,0.0831	-295.53
0.9445,0.0555	-295.25
0.9852,0.0148	-294.85
0.9061,0.0939	-295.65
0.9711,0.0289	-294.99
0.9937,0.0063	-294.77
0.9220,0.0780	-295.48
0.9498,0.0502	-295.19
0.9888,0.0112	-294.82
0.9196,0.0804	-295.50
0.9699,0.0301	-295.00
0.9937,0.0063	-294.77
0.9095,0.0905	-295.61
0.9475,0.0525	-295.22
0.9870,0.0130	-294.83
0.9180,0.0820	-295.52
0.9688,0.0312	-295.01
0.9940,0.0060	-294.77
0.8899,0.1101	-295.83
0.9465,0.0535	-295.23
0.9859,0.0141	-294.84
0.9286,0.0714	-295.41
0.9631,0.0369	-295.06
0.9927,0.0073	-294.78
0.8925,0.1075	-295.80
0.9470,0.0530	-295.22
0.9824,0.0176	-294.88
0.9284,0.0716	-295.41
0.9715,0.0285	-294.98
0.9908,0.0092	-294.80
0.9003,0.0997	-295.71
0.9504,0.0496	-295.19
0.9815,0.0185	-294.89
0.9242,0.0758	-295.46
0.9744,0.0256	-294.95
0.9932,0.0068	-294.78
0.8922,0.1078	-295.80
0.9575,0.0425	-295.12
0.9858,0.0142	-294.85
0.9361,0.0639	-295.33
0.9766,0.0234	-294.93
0.9925,0.0075	-294.78
0.8767,0.1233	-295.98
0.9585,0.0415	-295.11
0.9871,0.0129	-294.83
0.9324,0.0676	-295.37
0.9751,0.0249	-294.95
0.9944,0.0056	-294.77
0.8523,0.1477	-296.27
0.9636,0.0364	-295.06
0.9863,0.0137	-294.84
0.9302,0.0698	-295.39
0.9774,0.0226	-294.92
0.9946,0.0054	-294.76
0.8562,0.1438	-296.22
0.9609,0.0391	-295.08
0.9837,0.0163	-294.87
0.9206,0.0794	-295.49
0.9757,0.0243	-294.94
0.9950,0.0050	-294.76
0.8565,0.1435	-296.22
0.9608,0.0392	-295.08
0.9851,0.0149	-294.85
0.9206,0.0794	-295.49
0.9729,0.0271	-294.97
0.9958,0.0042	-294.75
0.8661,0.1339	-296.10
0.9558,0.0442	-295.13
0.9839,0.0161	-294.86
0.9203,0.0797	-295.50
0.9734,0.0266	-294.96
0.9961,0.0039	-294.75
0.8722,0.1278	-296.03
0.9576,0.0424	-295.12
0.9846,0.0154	-294.86
0.9118,0.0882	-295.59
0.9721,0.0279	-294.98
0.9954,0.0046	-294.76
0.8624,0.1376	-296.15
0.9364,0.0636	-295.33
0.9824,0.0176	-294.88
0.9284,0.0716	-295.41
0.9799,0.0201	-294.90
0.9943,0.0057	-294.77
0.8670,0.1330	-296.09
0.9403,0.0597	-295.29
0.9814,0.0186	-294.89
0.9314,0.0686	-295.38
0.9849,0.0151	-294.85
0.9929,0.0071	-294.78
0.8777,0.1223	-295.97
0.9396,0.0604	-295.30
0.9818,0.0182	-294.88
0.9368,0.0632	-295.32
0.9861,0.0139	-294.84
0.9933,0.0067	-294.78
0.9104,0.0896	-295.60
0.9409,0.0591	-295.28
0.9825,0.0175	-294.88
0.9388,0.0612	-295.30
0.9803,0.0197	-294.90
0.9934,0.0066	-294.77
0.9172,0.0828	-295.53
0.9421,0.0579	-295.27
0.9859,0.0141	-294.84
0.9371,0.0629	-295.32
0.9800,0.0200	-294.90
0.9918,0.0082	-294.79
0.9141,0.0859	-295.56
0.9276,0.0724	-295.42
0.9847,0.0153	-294.86
0.9151,0.0849	-295.55
0.9775,0.0225	-294.92
0.9914,0.0086	-294.79
0.9169,0.0831	-295.53
0.9137,0.0863	-295.57
0.9855,0.0145	-294.85
0.8959,0.1041	-295.76
0.9787,0.0213	-294.91
0.9930,0.0070	-294.78
0.9189,0.0811	-295.51
0.9166,0.0834	-295.54
0.9873,0.0127	-294.83
0.8996,0.1004	-295.72
0.9795,0.0205	-294.91
0.9932,0.0068	-294.78
0.9446,0.0554	-295.25
0.9273,0.0727	-295.42
0.9867,0.0133	-294.84
0.9117,0.0883	-295.59
0.9759,0.0241	-294.94
0.9931,0.0069	-294.78
0.9577,0.0423	-295.12
0.9445,0.0555	-295.25
0.9897,0.0103	-294.81
0.9044,0.0956	-295.67
0.9806,0.0194	-294.89
0.9921,0.0079	-294.79
0.9556,0.0444	-295.14
0.9535,0.0465	-295.16
0.9874,0.0126	-294.83
0.9074,0.0926	-295.63
0.9800,0.0200	-294.90
0.9936,0.0064	-294.77
0.9435,0.0565	-295.26
0.9595,0.0405	-295.10
0.9867,0.0133	-294.84
0.9038,0.0962	-295.67
0.9799,0.0201	-294.90
0.9944,0.0056	-294.77
0.9255,0.0745	-295.44
0.9455,0.0545	-295.24
0.9871,0.0129	-294.83
0.8897,0.1103	-295.83
0.9775,0.0225	-294.92
0.9949,0.0051	-294.76
0.9381,0.0619	-295.31
0.9428,0.0572	-295.26
0.9870,0.0130	-294.83
0.9087,0.0913	-295.62
0.9775,0.0225	-294.92
0.9966,0.0034	-294.75
0.9416,0.0584	-295.28
0.9381,0.0619	-295.31
0.9893,0.0107	-294.81
0.9193,0.0807	-295.51
0.9778,0.0222	-294.92
0.9968,0.0032	-294.74
0.9320,0.0680	-295.37
0.9499,0.0501	-295.19
0.9903,0.0097	-294.80
0.9396,0.0604	-295.30
0.9811,0.0189	-294.89
0.9964,0.0036	-294.75
0.9404,0.0596	-295.29
0.9589,0.0411	-295.10
0.9928,0.0072	-294.78
0.9412,0.0588	-295.28
0.9802,0.0198	-294.90
0.9969,0.0031	-294.74
0.9445,0.0555	-295.25
0.9568,0.0432	-295.12
0.9932,0.0068	-294.78
0.9462,0.0538	-295.23
0.9790,0.0210	-294.91
0.9969,0.0031	-294.74
0.9423,0.0577	-295.27
0.9620,0.0380	-295.07
0.9911,0.0089	-294.80
0.9499,0.0501	-295.19
0.9740,0.0260	-294.96
0.9970,0.0030	-294.74
0.9612,0.0388	-295.08
0.9665,0.0335	-295.03
0.9922,0.0078	-294.79
0.9509,0.0491	-295.18
0.9650,0.0350	-295.04
0.9967,0.0033	-294.74
0.9608,0.0392	-295.08
0.9723,0.0277	-294.97
0.9910,0.0090	-294.80
0.9517,0.0483	-295.17
0.9658,0.0342	-295.04
0.9976,0.0024	-294.74
0.9644,0.0356	-295.05
0.9716,0.0284	-294.98
0.9924,0.0076	-294.78
0.9377,0.0623	-295.32
0.9638,0.0362	-295.06
0.9976,0.0024	-294.74
0.9590,0.0410	-295.10
0.9710,0.0290	-294.99
0.9928,0.0072	-294.78
0.9454,0.0546	-295.24
0.9662,0.0338	-295.03
0.9975,0.0025	-294.74
0.9523,0.0477	-295.17
0.9737,0.0263	-294.96
0.9902,0.0098	-294.80
0.9496,0.0504	-295.20
0.9644,0.0356	-295.05
0.9974,0.0026	-294.74
0.9397,0.0603	-295.29
0.9771,0.0229	-294.93
0.9890,0.0110	-294.82
0.9553,0.0447	-295.14
0.9558,0.0442	-295.13
0.9974,0.0026	-294.74
0.9480,0.0520	-295.21
0.9740,0.0260	-294.96
0.9888,0.0112	-294.82
0.9516,0.0484	-295.18
0.9574,0.0426	-295.12
0.9974,0.0026	-294.74
0.9339,0.0661	-295.35
0.9745,0.0255	-294.95
0.9881,0.0119	-294.82
0.9471,0.0529	-295.22
0.9562,0.0438	-295.13
0.9969,0.0031	-294.74
0.9335,0.0665	-295.36
0.9778,0.0222	-294.92
0.9873,0.0127	-294.83
0.9555,0.0445	-295.14
0.9577,0.0423	-295.12
0.9968,0.0032	-294.74
0.9428,0.0572	-295.26
0.9835,0.0165	-294.87
0.9881,0.0119	-294.82
0.9458,0.0542	-295.23
0.9509,0.0491	-295.18
0.9966,0.0034	-294.75
0.9413,0.0587	-295.28
0.9832,0.0168	-294.87
0.9891,0.0109	-294.81
0.9539,0.0461	-295.15
0.9471,0.0529	-295.22
0.9964,0.0036	-294.75
0.9308,0.0692	-295.39
0.9859,0.0141	-294.84
0.9910,0.0090	-294.80
0.9535,0.0465	-295.16
0.9430,0.0570	-295.26
0.9963,0.0037	-294.75
0.9310,0.0690	-295.38
0.9813,0.0187	-294.89
0.9893,0.0107	-294.81
0.9519,0.0481	-295.17
0.9515,0.0485	-295.18
0.9963,0.0037	-294.75
0.9255,0.0745	-295.44
0.9808,0.0192	-294.89
0.9903,0.0097	-294.80
0.9413,0.0587	-295.28
0.9505,0.0495	-295.19
0.9955,0.0045	-294.76
0.9177,0.0823	-295.52
0.9805,0.0195	-294.90
0.9913,0.0087	-294.79
0.9414,0.0586	-295.28
0.9567,0.0433	-295.12
0.9937,0.0063	-294.77
0.9315,0.0685	-295.38
0.9839,0.0161	-294.86
0.9927,0.0073	-294.78
0.9516,0.0484	-295.18
0.9564,0.0436	-295.13
0.9924,0.0076	-294.78
0.9355,0.0645	-295.34
0.9843,0.0157	-294.86
0.9953,0.0047	-294.76
0.9531,0.0469	-295.16
0.9520,0.0480	-295.17
0.9934,0.0066	-294.78
0.9045,0.0955	-295.67
0.9829,0.0171	-294.87
0.9938,0.0062	-294.77
0.9456,0.0544	-295.24
0.9518,0.0482	-295.17
0.9932,0.0068	-294.78
0.9036,0.0964	-295.68
0.9861,0.0139	-294.84
0.9939,0.0061	-294.77
0.9545,0.0455	-295.15
0.9540,0.0460	-295.15
0.9912,0.0088	-294.79
0.9099,0.0901	-295.61
0.9836,0.0164	-294.87
0.9954,0.0046	-294.76
0.9563,0.0437	-295.13
0.9422,0.0578	-295.27
0.9905,0.0095	-294.80
0.8882,0.1118	-295.85
0.9825,0.0175	-294.88
0.9958,0.0042	-294.75
0.9580,0.0420	-295.11
0.9408,0.0592	-295.28
0.9893,0.0107	-294.81
0.8935,0.1065	-295.79
0.9804,0.0196	-294.90
0.9957,0.0043	-294.75
0.9551,0.0449	-295.14
0.9434,0.0566	-295.26
0.9891,0.0109	-294.81
0.9153,0.0847	-295.55
0.9759,0.0241	-294.94
0.9953,0.0047	-294.76
0.9517,0.0483	-295.17
0.9477,0.0523	-295.21
0.9879,0.0121	-294.83
0.8860,0.1140	-295.87
0.9724,0.0276	-294.97
0.9946,0.0054	-294.76
0.9501,0.0499	-295.19
0.9507,0.0493	-295.18
0.9892,0.0108	-294.81
0.9013,0.0987	-295.70
0.9697,0.0303	-295.00
0.9934,0.0066	-294.78
0.9538,0.0462	-295.15
0.9556,0.0444	-295.14
0.9899,0.0101	-294.81
0.9171,0.0829	-295.53
0.9717,0.0283	-294.98
0.9921,0.0079	-294.79
0.9579,0.0421	-295.11
0.9422,0.0578	-295.27
0.9896,0.0104	-294.81
0.9169,0.0831	-295.53
0.9755,0.0245	-294.94
0.9924,0.0076	-294.78
0.9684,0.0316	-295.01
0.9418,0.0582	-295.27
0.9907,0.0093	-294.80
0.9366,0.0634	-295.33
0.9805,0.0195	-294.89
0.9878,0.0122	-294.83
0.9664,0.0336	-295.03
0.9405,0.0595	-295.29
0.9909,0.0091	-294.80
0.9285,0.0715	-295.41
0.9803,0.0197	-294.90
0.9847,0.0153	-294.86
0.9751,0.0249	-294.95
0.9537,0.0463	-295.15
0.9912,0.0088	-294.79
0.9283,0.0717	-295.41
0.9823,0.0177	-294.88
0.9829,0.0171	-294.87
0.9679,0.0321	-295.02
0.9610,0.0390	-295.08
0.9902,0.0098	-294.80
0.9015,0.0985	-295.70
0.9802,0.0198	-294.90
0.9784,0.0216	-294.91
0.9708,0.0292	-294.99
0.9644,0.0356	-295.05
0.9885,0.0115	-294.82
0.8898,0.1102	-295.83
0.9786,0.0214	-294.91
0.9729,0.0271	-294.97
0.9696,0.0304	-295.00
0.9670,0.0330	-295.02
0.9891,0.0109	-294.81
0.8840,0.1160	-295.89
0.9797,0.0203	-294.90
0.9748,0.0252	-294.95
0.9713,0.0287	-294.98
0.9695,0.0305	-295.00
0.9883,0.0117	-294.82
0.8808,0.1192	-295.93
0.9797,0.0203	-294.90
0.9744,0.0256	-294.95
0.9703,0.0297	-294.99
0.9629,0.0371	-295.06
0.9872,0.0128	-294.83
0.8651,0.1349	-296.11
0.9796,0.0204	-294.90
0.9737,0.0263	-294.96
0.9671,0.0329	-295.02
0.9666,0.0334	-295.03
0.9875,0.0125	-294.83
0.8782,0.1218	-295.96
0.9790,0.0210	-294.91
0.9724,0.0276	-294.97
0.9703,0.0297	-294.99
0.9610,0.0390	-295.08
0.9855,0.0145	-294.85
0.8546,0.1454	-296.24
0.9777,0.0223	-294.92
0.9792,0.0208	-294.91
0.9666,0.0334	-295.03
0.9656,0.0344	-295.04
0.9834,0.0166	-294.87
0.8273,0.1727	-296.58
0.9780,0.0220	-294.92
0.9759,0.0241	-294.94
0.9670,0.0330	-295.02
0.9718,0.0282	-294.98
0.9804,0.0196	-294.90
0.8227,0.1773	-296.64
0.9780,0.0220	-294.92
0.9742,0.0258	-294.96
0.9656,0.0344	-295.04
0.9733,0.0267	-294.96
0.9832,0.0168	-294.87
0.8118,0.1882	-296.78
0.9812,0.0188	-294.89
0.9761,0.0239	-294.94
0.9679,0.0321	-295.02
0.9723,0.0277	-294.97
0.9876,0.0124	-294.83
0.8181,0.1819	-296.70
0.9820,0.0180	-294.88
0.9741,0.0259	-294.96
0.9715,0.0285	-294.98
0.9734,0.0266	-294.96
0.9899,0.0101	-294.81
0.8324,0.1676	-296.51
0.9816,0.0184	-294.88
0.9763,0.0237	-294.94
0.9698,0.0302	-295.00
0.9720,0.0280	-294.98
0.9871,0.0129	-294.83
0.8056,0.1944	-296.86
0.9762,0.0238	-294.94
0.9779,0.0221	-294.92
0.9653,0.0347	-295.04
0.9739,0.0261	-294.96
0.9876,0.0124	-294.83
0.7815,0.2185	-297.19
0.9758,0.0242	-294.94
0.9775,0.0225	-294.92
0.9662,0.0338	-295.03
0.9714,0.0286	-294.98
0.9860,0.0140	-294.84
0.7719,0.2281	-297.33
0.9751,0.0249	-294.95
0.9733,0.0267	-294.96
0.9583,0.0417	-295.11
0.9678,0.0322	-295.02
0.9807,0.0193	-294.89
0.7758,0.2242	-297.28
0.9770,0.0230	-294.93
0.9704,0.0296	-294.99
0.9572,0.0428	-295.12
0.9665,0.0335	-295.03
0.9777,0.0223	-294.92
0.7819,0.2181	-297.19
0.9736,0.0264	-294.96
0.9730,0.0270	-294.97
0.9572,0.0428	-295.12
0.9603,0.0397	-295.09
0.9815,0.0185	-294.89
0.7812,0.2188	-297.20
0.9772,0.0228	-294.93
0.9762,0.0238	-294.94
0.9609,0.0391	-295.08
0.9597,0.0403	-295.10
0.9806,0.0194	-294.89
0.7974,0.2026	-296.97
0.9744,0.0256	-294.95
0.9752,0.0248	-294.95
0.9591,0.0409	-295.10
0.9630,0.0370	-295.06
0.9785,0.0215	-294.91
0.7655,0.2345	-297.43
0.9722,0.0278	-294.97
0.9686,0.0314	-295.01
0.9687,0.0313	-295.01
0.9645,0.0355	-295.05
0.9774,0.0226	-294.92
0.7416,0.2584	-297.79
0.9693,0.0307	-295.00
0.9604,0.0396	-295.09
0.9632,0.0368	-295.06
0.9685,0.0315	-295.01
0.9769,0.0231	-294.93
0.7687,0.2313	-297.38
0.9741,0.0259	-294.96
0.9654,0.0346	-295.04
0.9618,0.0382	-295.07
0.9638,0.0362	-295.06
0.9739,0.0261	-294.96
0.7885,0.2115	-297.10
0.9686,0.0314	-295.01
0.9699,0.0301	-295.00
0.9627,0.0373	-295.07
0.9598,0.0402	-295.09
0.9717,0.0283	-294.98
0.8241,0.1759	-296.62
0.9634,0.0366	-295.06
0.9675,0.0325	-295.02
0.9612,0.0388	-295.08
0.9621,0.0379	-295.07
0.9797,0.0203	-294.90
0.8150,0.1850	-296.74
0.9647,0.0353	-295.05
0.9540,0.0460	-295.15
0.9647,0.0353	-295.05
0.9630,0.0370	-295.06
0.9804,0.0196	-294.90
0.8269,0.1731	-296.58
0.9660,0.0340	-295.03
0.9599,0.0401	-295.09
0.9625,0.0375	-295.07
0.9630,0.0370	-295.06
0.9803,0.0197	-294.90
0.7921,0.2079	-297.05
0.9685,0.0315	-295.01
0.9588,0.0412	-295.10
0.9639,0.0361	-295.05
0.9608,0.0392	-295.08
0.9746,0.0254	-294.95
0.7914,0.2086	-297.06
0.9680,0.0320	-295.01
0.9593,0.0407	-295.10
0.9661,0.0339	-295.03
0.9724,0.0276	-294.97
0.9723,0.0277	-294.97
0.7658,0.2342	-297.42
0.9611,0.0389	-295.08
0.9535,0.0465	-295.16
0.9686,0.0314	-295.01
0.9749,0.0251	-294.95
0.9776,0.0224	-294.92
0.7298,0.2702	-297.97
0.9560,0.0440	-295.13
0.9527,0.0473	-295.16
0.9642,0.0358	-295.05
0.9692,0.0308	-295.00
0.9831,0.0169	-294.87
0.7536,0.2464	-297.60
0.9548,0.0452	-295.14
0.9518,0.0482	-295.17
0.9622,0.0378	-295.07
0.9671,0.0329	-295.02
0.9835,0.0165	-294.87
0.7382,0.2618	-297.84
0.9583,0.0417	-295.11
0.9526,0.0474	-295.17
0.9701,0.0299	-294.99
0.9586,0.0414	-295.11
0.9852,0.0148	-294.85
0.7423,0.2577	-297.78
0.9512,0.0488	-295.18
0.9506,0.0494	-295.18
0.9636,0.0364	-295.06
0.9498,0.0502	-295.19
0.9827,0.0173	-294.87
0.6966,0.3034	-298.52
0.9485,0.0515	-295.21
0.9593,0.0407	-295.10
0.9515,0.0485	-295.18
0.9485,0.0515	-295.21
0.9829,0.0171	-294.87
0.7268,0.2732	-298.02
0.9437,0.0563	-295.25
0.9514,0.0486	-295.18
0.9600,0.0400	-295.09
0.9597,0.0403	-295.10
0.9843,0.0157	-294.86
0.7366,0.2634	-297.86
0.9359,0.0641	-295.33
0.9530,0.0470	-295.16
0.9664,0.0336	-295.03
0.9627,0.0373	-295.07
0.9841,0.0159	-294.86
0.7300,0.2700	-297.97
0.9435,0.0565	-295.26
0.9507,0.0493	-295.18
0.9683,0.0317	-295.01
0.9589,0.0411	-295.10
0.9842,0.0158	-294.86
0.7408,0.2592	-297.80
0.9488,0.0512	-295.20
0.9556,0.0444	-295.14
0.9695,0.0305	-295.00
0.9660,0.0340	-295.03
0.9846,0.0154	-294.86
0.7622,0.2378	-297.47
0.9440,0.0560	-295.25
0.9600,0.0400	-295.09
0.9665,0.0335	-295.03
0.9584,0.0416	-295.11
0.9836,0.0164	-294.87
0.7949,0.2051	-297.01
0.9181,0.0819	-295.52
0.9580,0.0420	-295.11
0.9661,0.0339	-295.03
0.9525,0.0475	-295.17
0.9830,0.0170	-294.87
0.8213,0.1787	-296.65
0.9067,0.0933	-295.64
0.9578,0.0422	-295.11
0.9639,0.0361	-295.05
0.9525,0.0475	-295.17
0.9790,0.0210	-294.91
0.8421,0.1579	-296.39
0.8837,0.1163	-295.90
0.9472,0.0528	-295.22
0.9671,0.0329	-295.02
0.9470,0.0530	-295.22
0.9797,0.0203	-294.90
0.8391,0.1609	-296.43
0.8570,0.1430	-296.21
0.9483,0.0517	-295.21
0.9680,0.0320	-295.01
0.9442,0.0558	-295.25
0.9759,0.0241	-294.94
0.8007,0.1993	-296.93
0.8662,0.1338	-296.10
0.9509,0.0491	-295.18
0.9679,0.0321	-295.02
0.9460,0.0540	-295.23
0.9787,0.0213	-294.91
0.8043,0.1957	-296.88
0.8614,0.1386	-296.16
0.9383,0.0617	-295.31
0.9676,0.0324	-295.02
0.9416,0.0584	-295.28
0.9728,0.0272	-294.97
0.8146,0.1854	-296.74
0.8619,0.1381	-296.15
0.9289,0.0711	-295.41
0.9706,0.0294	-294.99
0.9416,0.0584	-295.28
0.9693,0.0307	-295.00
0.8244,0.1756	-296.61
0.8745,0.1255	-296.00
0.9226,0.0774	-295.47
0.9690,0.0310	-295.00
0.9395,0.0605	-295.30
0.9732,0.0268	-294.96
0.8227,0.1773	-296.64
0.8815,0.1185	-295.92
0.9314,0.0686	-295.38
0.9709,0.0291	-294.99
0.9372,0.0628	-295.32
0.9752,0.0248	-294.95
0.7875,0.2125	-297.11
0.8921,0.1079	-295.80
0.9250,0.0750	-295.45
0.9714,0.0286	-294.98
0.9379,0.0621	-295.31
0.9679,0.0321	-295.02
0.7854,0.2146	-297.14
0.8839,0.1161	-295.90
0.9361,0.0639	-295.33
0.9751,0.0249	-294.95
0.9355,0.0645	-295.34
0.9722,0.0278	-294.97
0.8218,0.1782	-296.65
0.9063,0.0937	-295.65
0.9379,0.0621	-295.31
0.9774,0.0226	-294.92
0.9328,0.0672	-295.37
0.9715,0.0285	-294.98
0.8080,0.1920	-296.83
0.9203,0.0797	-295.50
0.9306,0.0694	-295.39
0.9783,0.0217	-294.92
0.9415,0.0585	-295.28
0.9688,0.0312	-295.01
0.7719,0.2281	-297.33
0.9051,0.0949	-295.66
0.9301,0.0699	-295.39
0.9780,0.0220	-294.92
0.9468,0.0532	-295.22
0.9718,0.0282	-294.98
0.7689,0.2311	-297.38
0.8953,0.1047	-295.77
0.9326,0.0674	-295.37
0.9728,0.0272	-294.97
0.9484,0.0516	-295.21
0.9718,0.0282	-294.98
0.8053,0.1947	-296.87
0.8945,0.1055	-295.78
0.9255,0.0745	-295.44
0.9752,0.0248	-294.95
0.9461,0.0539	-295.23
0.9737,0.0263	-294.96
0.8013,0.1987	-296.92
0.9061,0.0939	-295.65
0.9134,0.0866	-295.57
0.9747,0.0253	-294.95
0.9421,0.0579	-295.27
0.9729,0.0271	-294.97
0.7858,0.2142	-297.13
0.9379,0.0621	-295.31
0.9069,0.0931	-295.64
0.9724,0.0276	-294.97
0.9414,0.0586	-295.28
0.9756,0.0244	-294.94
0.7643,0.2357	-297.44
0.9309,0.0691	-295.39
0.8926,0.1074	-295.80
0.9648,0.0352	-295.05
0.9277,0.0723	-295.42
0.9719,0.0281	-294.98
0.8094,0.1906	-296.81
0.9184,0.0816	-295.52
0.8912,0.1088	-295.81
0.9644,0.0356	-295.05
0.8851,0.1149	-295.88
0.9713,0.0287	-294.98
0.7666,0.2334	-297.41
0.9307,0.0693	-295.39
0.8939,0.1061	-295.78
0.9604,0.0396	-295.09
0.8974,0.1026	-295.74
0.9683,0.0317	-295.01
0.7419,0.2581	-297.78
0.9268,0.0732	-295.43
0.8574,0.1426	-296.21
0.9620,0.0380	-295.07
0.9112,0.0888	-295.59
0.9700,0.0300	-295.00
0.7600,0.2400	-297.51
0.9119,0.0881	-295.59
0.9018,0.0982	-295.70
0.9624,0.0376	-295.07
0.8966,0.1034	-295.75
0.9634,0.0366	-295.06
0.7796,0.2204	-297.22
0.9170,0.0830	-295.53
0.8969,0.1031	-295.75
0.9661,0.0339	-295.03
0.9123,0.0877	-295.58
0.9529,0.0471	-295.16
0.7553,0.2447	-297.58
0.9163,0.0837	-295.54
0.8966,0.1034	-295.75
0.9634,0.0366	-295.06
0.9284,0.0716	-295.41
0.9535,0.0465	-295.16
0.7500,0.2500	-297.66
0.8939,0.1061	-295.78
0.8925,0.1075	-295.80
0.9627,0.0373	-295.07
0.9259,0.0741	-295.44
0.9566,0.0434	-295.13
0.7218,0.2782	-298.10
0.8706,0.1294	-296.05
0.8814,0.1186	-295.92
0.9595,0.0405	-295.10
0.9339,0.0661	-295.35
0.9645,0.0355	-295.05
0.6849,0.3151	-298.73
0.8544,0.1456	-296.24
0.8883,0.1117	-295.85
0.9561,0.0439	-295.13
0.9520,0.0480	-295.17
0.9615,0.0385	-295.08
0.6739,0.3261	-298.93
0.8576,0.1424	-296.20
0.8719,0.1281	-296.03
0.9551,0.0449	-295.14
0.9524,0.0476	-295.17
0.9694,0.0306	-295.00
0.6877,0.3123	-298.68
0.8515,0.1485	-296.28
0.8630,0.1370	-296.14
0.9519,0.0481	-295.17
0.9507,0.0493	-295.18
0.9701,0.0299	-294.99
0.7047,0.2953	-298.39
0.8401,0.1599	-296.42
0.8269,0.1731	-296.58
0.9618,0.0382	-295.07
0.9444,0.0556	-295.25
0.9750,0.0250	-294.95
0.6560,0.3440	-299.26
0.8552,0.1448	-296.23
0.8298,0.1702	-296.55
0.9646,0.0354	-295.05
0.9257,0.0743	-295.44
0.9709,0.0291	-294.99
0.6806,0.3194	-298.81
0.8807,0.1193	-295.93
0.7834,0.2166	-297.17
0.9554,0.0446	-295.14
0.9116,0.0884	-295.59
0.9716,0.0284	-294.98
0.6810,0.3190	-298.80
0.9034,0.0966	-295.68
0.7931,0.2069	-297.03
0.9671,0.0329	-295.02
0.9088,0.0912	-295.62
0.9742,0.0258	-294.95
0.6539,0.3461	-299.31
0.8890,0.1110	-295.84
0.7587,0.2413	-297.53
0.9653,0.0347	-295.04
0.9000,0.1000	-295.72
0.9702,0.0298	-294.99
0.7400,0.2600	-297.81
0.8862,0.1138	-295.87
0.7179,0.2821	-298.16
0.9685,0.0315	-295.01
0.9103,0.0897	-295.60
0.9706,0.0294	-294.99
0.7226,0.2774	-298.09
0.9010,0.0990	-295.70
0.7514,0.2486	-297.64
0.9610,0.0390	-295.08
0.8895,0.1105	-295.83
0.9687,0.0313	-295.01
0.7694,0.2306	-297.37
0.8947,0.1053	-295.77
0.7798,0.2202	-297.22
0.9481,0.0519	-295.21
0.8939,0.1061	-295.78
0.9656,0.0344	-295.04
0.7883,0.2117	-297.10
0.8883,0.1117	-295.85
0.7819,0.2181	-297.19
0.9426,0.0574	-295.27
0.8798,0.1202	-295.94
0.9417,0.0583	-295.27
0.8081,0.1919	-296.83
0.9074,0.0926	-295.63
0.8298,0.1702	-296.55
0.9391,0.0609	-295.30
0.8728,0.1272	-296.02
0.9582,0.0418	-295.11
0.8004,0.1996	-296.93
0.9354,0.0646	-295.34
0.8478,0.1522	-296.32
0.9258,0.0742	-295.44
0.8812,0.1188	-295.93
0.9599,0.0401	-295.09
0.8039,0.1961	-296.89
0.9446,0.0554	-295.25
0.8631,0.1369	-296.14
0.9356,0.0644	-295.34
0.9197,0.0803	-295.50
0.9631,0.0369	-295.06
0.8128,0.1872	-296.77
0.9363,0.0637	-295.33
0.8801,0.1199	-295.94
0.9396,0.0604	-295.30
0.9168,0.0832	-295.53
0.9531,0.0469	-295.16
0.7803,0.2197	-297.21
0.9470,0.0530	-295.22
0.8688,0.1312	-296.07
0.9368,0.0632	-295.33
0.9236,0.0764	-295.46
0.9558,0.0442	-295.13
0.7932,0.2068	-297.03
0.9470,0.0530	-295.22
0.8531,0.1469	-296.26
0.9240,0.0760	-295.46
0.9039,0.0961	-295.67
0.9566,0.0434	-295.13
0.7939,0.2061	-297.02
0.9490,0.0510	-295.20
0.8709,0.1291	-296.04
0.9165,0.0835	-295.54
0.9278,0.0722	-295.42
0.9575,0.0425	-295.12
0.8169,0.1831	-296.71
0.9564,0.0436	-295.13
0.8798,0.1202	-295.94
0.9066,0.0934	-295.64
0.9397,0.0603	-295.30
0.9573,0.0427	-295.12
0.8338,0.1662	-296.50
0.9593,0.0407	-295.10
0.8931,0.1069	-295.79
0.8923,0.1077	-295.80
0.9446,0.0554	-295.25
0.9566,0.0434	-295.13
0.7922,0.2078	-297.04
0.9574,0.0426	-295.12
0.8940,0.1060	-295.78
0.8984,0.1016	-295.73
0.9518,0.0482	-295.17
0.9564,0.0436	-295.13
0.7942,0.2058	-297.02
0.9604,0.0396	-295.09
0.8740,0.1260	-296.01
0.8989,0.1011	-295.73
0.9559,0.0441	-295.13
0.9634,0.0366	-295.06
0.7689,0.2311	-297.38
0.9573,0.0427	-295.12
0.8927,0.1073	-295.80
0.8887,0.1113	-295.84
0.9544,0.0456	-295.15
0.9642,0.0358	-295.05
0.7740,0.2260	-297.30
0.9572,0.0428	-295.12
0.8859,0.1141	-295.87
0.8744,0.1256	-296.01
0.9528,0.0472	-295.16
0.9666,0.0334	-295.03
0.8094,0.1906	-296.81
0.9529,0.0471	-295.16
0.8778,0.1222	-295.97
0.8773,0.1227	-295.97
0.9462,0.0538	-295.23
0.9608,0.0392	-295.08
0.8114,0.1886	-296.79
0.9542,0.0458	-295.15
0.8896,0.1104	-295.83
0.8764,0.1236	-295.98
0.9559,0.0441	-295.13
0.9596,0.0404	-295.10
0.8173,0.1827	-296.71
0.9451,0.0549	-295.24
0.8822,0.1178	-295.92
0.8776,0.1224	-295.97
0.9568,0.0432	-295.12
0.9501,0.0499	-295.19
0.8648,0.1352	-296.12
0.9494,0.0506	-295.20
0.8689,0.1311	-296.07
0.8802,0.1198	-295.94
0.9379,0.0621	-295.31
0.9433,0.0567	-295.26
0.8564,0.1436	-296.22
0.9524,0.0476	-295.17
0.8304,0.1696	-296.54
0.8876,0.1124	-295.85
0.9356,0.0644	-295.34
0.9367,0.0633	-295.33
0.8860,0.1140	-295.87
0.9465,0.0535	-295.23
0.7920,0.2080	-297.05
0.8695,0.1305	-296.06
0.9474,0.0526	-295.22
0.9382,0.0618	-295.31
0.8844,0.1156	-295.89
0.9368,0.0632	-295.32
0.8277,0.1723	-296.57
0.8534,0.1466	-296.25
0.9491,0.0509	-295.20
0.9425,0.0575	-295.27
0.8981,0.1019	-295.74
0.9372,0.0628	-295.32
0.8285,0.1715	-296.56
0.8789,0.1211	-295.95
0.9449,0.0551	-295.24
0.9430,0.0570	-295.26
0.9088,0.0912	-295.62
0.9417,0.0583	-295.28
0.8405,0.1595	-296.41
0.9028,0.0972	-295.68
0.9449,0.0551	-295.24
0.9497,0.0503	-295.19
0.9129,0.0871	-295.58
0.9297,0.0703	-295.40
0.8490,0.1510	-296.31
0.9262,0.0738	-295.43
0.9457,0.0543	-295.23
0.9437,0.0563	-295.25
0.9029,0.0971	-295.68
0.9432,0.0568	-295.26
0.8701,0.1299	-296.05
0.9272,0.0728	-295.42
0.9459,0.0541	-295.23
0.9429,0.0571	-295.26
0.8984,0.1016	-295.73
0.9380,0.0620	-295.31
0.8785,0.1215	-295.96
0.9347,0.0653	-295.35
0.9431,0.0569	-295.26
0.9546,0.0454	-295.15
0.9046,0.0954	-295.66
0.9200,0.0800	-295.50
0.8836,0.1164	-295.90
0.9273,0.0727	-295.42
0.9547,0.0453	-295.14
0.9507,0.0493	-295.18
0.9062,0.0938	-295.65
0.9301,0.0699	-295.39
0.8995,0.1005	-295.72
0.9312,0.0688	-295.38
0.9643,0.0357	-295.05
0.9534,0.0466	-295.16
0.9083,0.0917	-295.62
0.9328,0.0672	-295.37
0.9184,0.0816	-295.52
0.9369,0.0631	-295.32
0.9688,0.0312	-295.01
0.9562,0.0438	-295.13
0.8956,0.1044	-295.76
0.9413,0.0587	-295.28
0.9047,0.0953	-295.66
0.9390,0.0610	-295.30
0.9631,0.0369	-295.06
0.9516,0.0484	-295.18
0.8923,0.1077	-295.80
0.9473,0.0527	-295.22
0.9047,0.0953	-295.66
0.9313,0.0687	-295.38
0.9569,0.0431	-295.12
0.9541,0.0459	-295.15
0.9004,0.0996	-295.71
0.9515,0.0485	-295.18
0.9174,0.0826	-295.53
0.9278,0.0722	-295.42
0.9557,0.0443	-295.13
0.9525,0.0475	-295.17
0.9101,0.0899	-295.61
0.9513,0.0487	-295.18
0.9304,0.0696	-295.39
0.9314,0.0686	-295.38
0.9592,0.0408	-295.10
0.9359,0.0641	-295.33
0.9132,0.0868	-295.57
0.9591,0.0409	-295.10
0.9353,0.0647	-295.34
0.9542,0.0458	-295.15
0.9537,0.0463	-295.15
0.9157,0.0843	-295.55
0.9343,0.0657	-295.35
0.9661,0.0339	-295.03
0.9365,0.0635	-295.33
0.9621,0.0379	-295.07
0.9615,0.0385	-295.08
0.9142,0.0858	-295.56
0.9414,0.0586	-295.28
0.9597,0.0403	-295.09
0.9404,0.0596	-295.29
0.9716,0.0284	-294.98
0.9506,0.0494	-295.18
0.9169,0.0831	-295.53
0.9379,0.0621	-295.31
0.9585,0.0415	-295.11
0.9271,0.0729	-295.43
0.9724,0.0276	-294.97
0.9407,0.0593	-295.29
0.9335,0.0665	-295.36
0.9479,0.0521	-295.21
0.9616,0.0384	-295.08
0.9322,0.0678	-295.37
0.9734,0.0266	-294.96
0.9429,0.0571	-295.26
0.9403,0.0597	-295.29
0.9537,0.0463	-295.15
0.9616,0.0384	-295.08
0.9257,0.0743	-295.44
0.9796,0.0204	-294.90
0.9397,0.0603	-295.30
0.9419,0.0581	-295.27
0.9424,0.0576	-295.27
0.9637,0.0363	-295.06
0.9172,0.0828	-295.53
0.9747,0.0253	-294.95
0.9457,0.0543	-295.23
0.9427,0.0573	-295.27
0.9331,0.0669	-295.36
0.9609,0.0391	-295.08
0.9115,0.0885	-295.59
0.9800,0.0200	-294.90
0.9315,0.0685	-295.38
0.9155,0.0845	-295.55
0.9463,0.0537	-295.23
0.9624,0.0376	-295.07
0.9085,0.0915	-295.62
0.9815,0.0185	-294.89
0.9359,0.0641	-295.33
0.9201,0.0799	-295.50
0.9593,0.0407	-295.10
0.9596,0.0404	-295.10
0.8988,0.1012	-295.73
0.9829,0.0171	-294.87
0.9469,0.0531	-295.22
0.9067,0.0933	-295.64
0.9636,0.0364	-295.06
0.9627,0.0373	-295.07
0.8733,0.1267	-296.02
0.9873,0.0127	-294.83
0.9574,0.0426	-295.12
0.9069,0.0931	-295.64
0.9530,0.0470	-295.16
0.9468,0.0532	-295.22
0.8805,0.1195	-295.93
0.9883,0.0117	-294.82
0.9599,0.0401	-295.09
0.9067,0.0933	-295.64
0.9615,0.0385	-295.08
0.9536,0.0464	-295.16
0.8966,0.1034	-295.75
0.9896,0.0104	-294.81
0.9592,0.0408	-295.10
0.9095,0.0905	-295.61
0.9660,0.0340	-295.03
0.9612,0.0388	-295.08
0.9067,0.0933	-295.64
0.9901,0.0099	-294.81
0.9569,0.0431	-295.12
0.9135,0.0865	-295.57
0.9655,0.0345	-295.04
0.9551,0.0449	-295.14
0.9105,0.0895	-295.60
0.9879,0.0121	-294.83
0.9626,0.0374	-295.07
0.9001,0.0999	-295.71
0.9665,0.0335	-295.03
0.9593,0.0407	-295.10
0.9169,0.0831	-295.53
0.9873,0.0127	-294.83
0.9698,0.0302	-295.00
0.9250,0.0750	-295.45
0.9583,0.0417	-295.11
0.9687,0.0313	-295.01
0.9084,0.0916	-295.62
0.9850,0.0150	-294.85
0.9677,0.0323	-295.02
0.9272,0.0728	-295.42
0.9587,0.0413	-295.11
0.9732,0.0268	-294.96
0.8995,0.1005	-295.72
0.9847,0.0153	-294.86
0.9662,0.0338	-295.03
0.9383,0.0617	-295.31
0.9543,0.0457	-295.15
0.9768,0.0232	-294.93
0.9050,0.0950	-295.66
0.9837,0.0163	-294.86
0.9734,0.0266	-294.96
0.9443,0.0557	-295.25
0.9615,0.0385	-295.08
0.9755,0.0245	-294.94
0.9153,0.0847	-295.55
0.9796,0.0204	-294.90
0.9711,0.0289	-294.98
0.9443,0.0557	-295.25
0.9509,0.0491	-295.18
0.9691,0.0309	-295.00
0.9092,0.0908	-295.61
0.9779,0.0221	-294.92
0.9740,0.0260	-294.96
0.9459,0.0541	-295.23
0.9500,0.0500	-295.19
0.9632,0.0368	-295.06
0.9237,0.0763	-295.46
0.9742,0.0258	-294.95
0.9747,0.0253	-294.95
0.9497,0.0503	-295.19
0.9512,0.0488	-295.18
0.9578,0.0422	-295.11
0.9254,0.0746	-295.44
0.9771,0.0229	-294.93
0.9707,0.0293	-294.99
0.9625,0.0375	-295.07
0.9436,0.0564	-295.26
0.9547,0.0453	-295.14
0.9337,0.0663	-295.36
0.9781,0.0219	-294.92
0.9745,0.0255	-294.95
0.9549,0.0451	-295.14
0.9449,0.0551	-295.24
0.9564,0.0436	-295.13
0.9029,0.0971	-295.68
0.9733,0.0267	-294.96
0.9780,0.0220	-294.92
0.9627,0.0373	-295.07
0.9648,0.0352	-295.05
0.9591,0.0409	-295.10
0.9056,0.0944	-295.65
0.9687,0.0313	-295.01
0.9761,0.0239	-294.94
0.9588,0.0412	-295.10
0.9581,0.0419	-295.11
0.9649,0.0351	-295.04
0.8838,0.1162	-295.90
0.9699,0.0301	-295.00
0.9797,0.0203	-294.90
0.9569,0.0431	-295.12
0.9566,0.0434	-295.13
0.9588,0.0412	-295.10
0.9053,0.0947	-295.66
0.9699,0.0301	-295.00
0.9840,0.0160	-294.86
0.9626,0.0374	-295.07
0.9560,0.0440	-295.13
0.9698,0.0302	-295.00
0.8892,0.1108	-295.84
0.9671,0.0329	-295.02
0.9826,0.0174	-294.88
0.9719,0.0281	-294.98
0.9569,0.0431	-295.12
0.9716,0.0284	-294.98
0.9018,0.0982	-295.70
0.9634,0.0366	-295.06
0.9805,0.0195	-294.90
0.9740,0.0260	-294.96
0.9417,0.0583	-295.28
0.9697,0.0303	-295.00
0.8989,0.1011	-295.73
0.9596,0.0404	-295.10
0.9792,0.0208	-294.91
0.9701,0.0299	-294.99
0.9223,0.0777	-295.48
0.9701,0.0299	-294.99
0.8979,0.1021	-295.74
0.9540,0.0460	-295.15
0.9798,0.0202	-294.90
0.9653,0.0347	-295.04
0.9360,0.0640	-295.33
0.9724,0.0276	-294.97
0.8635,0.1365	-296.13
0.9553,0.0447	-295.14
0.9773,0.0227	-294.93
0.9738,0.0262	-294.96
0.9349,0.0651	-295.34
0.9741,0.0259	-294.96
0.9040,0.0960	-295.67
0.9621,0.0379	-295.07
0.9606,0.0394	-295.09
0.9755,0.0245	-294.94
0.9370,0.0630	-295.32
0.9689,0.0311	-295.01
0.9119,0.0881	-295.59
0.9541,0.0459	-295.15
0.9551,0.0449	-295.14
0.9813,0.0187	-294.89
0.9439,0.0561	-295.25
0.9667,0.0333	-295.03
0.9125,0.0875	-295.58
0.9496,0.0504	-295.19
0.9434,0.0566	-295.26
0.9801,0.0199	-294.90
0.9505,0.0495	-295.19
0.9692,0.0308	-295.00
0.9079,0.0921	-295.63
0.9562,0.0438	-295.13
0.9340,0.0660	-295.35
0.9824,0.0176	-294.88
0.9388,0.0612	-295.30
0.9700,0.0300	-294.99
0.9260,0.0740	-295.44
0.9659,0.0341	-295.04
0.9336,0.0664	-295.36
0.9826,0.0174	-294.88
0.9534,0.0466	-295.16
0.9760,0.0240	-294.94
0.9279,0.0721	-295.42
0.9662,0.0338	-295.03
0.9315,0.0685	-295.38
0.9775,0.0225	-294.92
0.9612,0.0388	-295.08
0.9762,0.0238	-294.94
0.9356,0.0644	-295.34
0.9591,0.0409	-295.10
0.9268,0.0732	-295.43
0.9772,0.0228	-294.93
0.9623,0.0377	-295.07
0.9725,0.0275	-294.97
0.9237,0.0763	-295.46
0.9631,0.0369	-295.06
0.9383,0.0617	-295.31
0.9810,0.0190	-294.89
0.9464,0.0536	-295.23
0.9750,0.0250	-294.95
0.9190,0.0810	-295.51
0.9609,0.0391	-295.08
0.9428,0.0572	-295.26
0.9764,0.0236	-294.93
0.9435,0.0565	-295.26
0.9740,0.0260	-294.96
0.9013,0.0987	-295.70
0.9615,0.0385	-295.08
0.9379,0.0621	-295.31
0.9822,0.0178	-294.88
0.9395,0.0605	-295.30
0.9755,0.0245	-294.94
0.9035,0.0965	-295.68
0.9543,0.0457	-295.15
0.9326,0.0674	-295.37
0.9773,0.0227	-294.93
0.9104,0.0896	-295.60
0.9778,0.0222	-294.92
0.9155,0.0845	-295.55
0.9521,0.0479	-295.17
0.9186,0.0814	-295.51
0.9753,0.0247	-294.94
0.9217,0.0783	-295.48
0.9767,0.0233	-294.93
0.9183,0.0817	-295.52
0.9586,0.0414	-295.11
0.9110,0.0890	-295.60
0.9711,0.0289	-294.98
0.9290,0.0710	-295.41
0.9729,0.0271	-294.97
0.9174,0.0826	-295.53
0.9588,0.0412	-295.10
0.9044,0.0956	-295.67
0.9728,0.0272	-294.97
0.9443,0.0557	-295.25
0.9739,0.0261	-294.96
0.9224,0.0776	-295.47
0.9638,0.0362	-295.06
0.9045,0.0955	-295.67
0.9606,0.0394	-295.09
0.9451,0.0549	-295.24
0.9722,0.0278	-294.97
0.9219,0.0781	-295.48
0.9649,0.0351	-295.04
0.9095,0.0905	-295.61
0.9621,0.0379	-295.07
0.9447,0.0553	-295.24
0.9696,0.0304	-295.00
0.9341,0.0659	-295.35
0.9621,0.0379	-295.07
0.9216,0.0784	-295.48
0.9630,0.0370	-295.06
0.9473,0.0527	-295.22
0.9649,0.0351	-295.04
0.9202,0.0798	-295.50
0.9541,0.0459	-295.15
0.9188,0.0812	-295.51
0.9632,0.0368	-295.06
0.9413,0.0587	-295.28
0.9643,0.0357	-295.05
0.9191,0.0809	-295.51
0.9569,0.0431	-295.12
0.9259,0.0741	-295.44
0.9569,0.0431	-295.12
0.9442,0.0558	-295.25
0.9637,0.0363	-295.06
0.9205,0.0795	-295.49
0.9541,0.0459	-295.15
0.9367,0.0633	-295.33
0.9590,0.0410	-295.10
0.9392,0.0608	-295.30
0.9684,0.0316	-295.01
0.9117,0.0883	-295.59
0.9471,0.0529	-295.22
0.9332,0.0668	-295.36
0.9538,0.0462	-295.15
0.9375,0.0625	-295.32
0.9641,0.0359	-295.05
0.8964,0.1036	-295.75
0.9481,0.0519	-295.21
0.9434,0.0566	-295.26
0.9543,0.0457	-295.15
0.9367,0.0633	-295.33
0.9640,0.0360	-295.05
0.9047,0.0953	-295.66
0.9316,0.0684	-295.38
0.9410,0.0590	-295.28
0.9608,0.0392	-295.08
0.9368,0.0632	-295.32
0.9713,0.0287	-294.98
0.9089,0.0911	-295.62
0.9214,0.0786	-295.49
0.9362,0.0638	-295.33
0.9555,0.0445	-295.14
0.9333,0.0667	-295.36
0.9758,0.0242	-294.94
0.9243,0.0757	-295.45
0.9151,0.0849	-295.55
0.9199,0.0801	-295.50
0.9610,0.0390	-295.08
0.9256,0.0744	-295.44
0.9792,0.0208	-294.91
0.9171,0.0829	-295.53
0.9074,0.0926	-295.63
0.9287,0.0713	-295.41
0.9533,0.0467	-295.16
0.9087,0.0913	-295.62
0.9806,0.0194	-294.89
0.9282,0.0718	-295.41
0.9177,0.0823	-295.52
0.9199,0.0801	-295.50
0.9424,0.0576	-295.27
0.8918,0.1082	-295.81
0.9836,0.0164	-294.87
0.9206,0.0794	-295.49
0.9304,0.0696	-295.39
0.9242,0.0758	-295.46
0.9144,0.0856	-295.56
0.9164,0.0836	-295.54
0.9788,0.0212	-294.91
0.9148,0.0852	-295.55
0.9337,0.0663	-295.36
0.8952,0.1048	-295.77
0.8871,0.1129	-295.86
0.9094,0.0906	-295.61
0.9822,0.0178	-294.88
0.9203,0.0797	-295.50
0.9417,0.0583	-295.27
0.8754,0.1246	-295.99
0.8766,0.1234	-295.98
0.9163,0.0837	-295.54
0.9858,0.0142	-294.85
0.9276,0.0724	-295.42
0.9455,0.0545	-295.24
0.8885,0.1115	-295.84
0.9023,0.0977	-295.69
0.9201,0.0799	-295.50
0.9869,0.0131	-294.84
0.9247,0.0753	-295.45
0.9380,0.0620	-295.31
0.9105,0.0895	-295.60
0.9103,0.0897	-295.60
0.9241,0.0759	-295.46
0.9849,0.0151	-294.85
0.9249,0.0751	-295.45
0.9255,0.0745	-295.44
0.9388,0.0612	-295.30
0.8720,0.1280	-296.03
0.9137,0.0863	-295.57
0.9831,0.0169	-294.87
0.9205,0.0795	-295.49
0.9061,0.0939	-295.65
0.9454,0.0546	-295.24
0.8920,0.1080	-295.80
0.9162,0.0838	-295.54
0.9828,0.0172	-294.87
0.9116,0.0884	-295.59
0.8812,0.1188	-295.93
0.9435,0.0565	-295.26
0.8738,0.1262	-296.01
0.9004,0.0996	-295.71
0.9818,0.0182	-294.88
0.9057,0.0943	-295.65
0.8730,0.1270	-296.02
0.9508,0.0492	-295.18
0.8527,0.1473	-296.26
0.9012,0.0988	-295.70
0.9812,0.0188	-294.89
0.9099,0.0901	-295.61
0.8877,0.1123	-295.85
0.9568,0.0432	-295.12
0.8745,0.1255	-296.00
0.8854,0.1146	-295.88
0.9801,0.0199	-294.90
0.9084,0.0916	-295.62
0.9160,0.0840	-295.54
0.9561,0.0439	-295.13
0.8502,0.1498	-296.29
0.8878,0.1122	-295.85
0.9799,0.0201	-294.90
0.9374,0.0626	-295.32
0.9233,0.0767	-295.47
0.9625,0.0375	-295.07
0.8595,0.1405	-296.18
0.9129,0.0871	-295.58
0.9835,0.0165	-294.87
0.9386,0.0614	-295.31
0.9150,0.0850	-295.55
0.9628,0.0372	-295.06
0.8739,0.1261	-296.01
0.9275,0.0725	-295.42
0.9843,0.0157	-294.86
0.9476,0.0524	-295.22
0.9269,0.0731	-295.43
0.9614,0.0386	-295.08
0.8817,0.1183	-295.92
0.9198,0.0802	-295.50
0.9865,0.0135	-294.84
0.9454,0.0546	-295.24
0.9180,0.0820	-295.52
0.9645,0.0355	-295.05
0.8814,0.1186	-295.92
0.9203,0.0797	-295.50
0.9879,0.0121	-294.83
0.9466,0.0534	-295.23
0.9107,0.0893	-295.60
0.9539,0.0461	-295.15
0.8625,0.1375	-296.14
0.9247,0.0753	-295.45
0.9902,0.0098	-294.80
0.9450,0.0550	-295.24
0.9168,0.0832	-295.53
0.9547,0.0453	-295.14
0.8763,0.1237	-295.98
0.9185,0.0815	-295.52
0.9875,0.0125	-294.83
0.9517,0.0483	-295.17
0.9327,0.0673	-295.37
0.9375,0.0625	-295.32
0.8848,0.1152	-295.89
0.9208,0.0792	-295.49
0.9873,0.0127	-294.83
0.9424,0.0576	-295.27
0.9322,0.0678	-295.37
0.9395,0.0605	-295.30
0.9000,0.1000	-295.72
0.9110,0.0890	-295.60
0.9895,0.0105	-294.81
0.9476,0.0524	-295.22
0.9441,0.0559	-295.25
0.9467,0.0533	-295.22
0.9073,0.0927	-295.64
0.9103,0.0897	-295.60
0.9893,0.0107	-294.81
0.9287,0.0713	-295.41
0.9403,0.0597	-295.29
0.9301,0.0699	-295.39
0.8798,0.1202	-295.94
0.9229,0.0771	-295.47
0.9863,0.0137	-294.84
0.9272,0.0728	-295.42
0.9379,0.0621	-295.31
0.9300,0.0700	-295.40
0.8999,0.1001	-295.72
0.9351,0.0649	-295.34
0.9866,0.0134	-294.84
0.9101,0.0899	-295.61
0.9409,0.0591	-295.28
0.9224,0.0776	-295.47
0.9163,0.0837	-295.54
0.9350,0.0650	-295.34
0.9869,0.0131	-294.84
0.9220,0.0780	-295.48
0.9437,0.0563	-295.25
0.9211,0.0789	-295.49
0.9162,0.0838	-295.54
0.9390,0.0610	-295.30
0.9890,0.0110	-294.82
0.9264,0.0736	-295.43
0.9395,0.0605	-295.30
0.9242,0.0758	-295.46
0.9260,0.0740	-295.44
0.9216,0.0784	-295.48
0.9914,0.0086	-294.79
0.9280,0.0720	-295.42
0.9523,0.0477	-295.17
0.9330,0.0670	-295.36
0.9437,0.0563	-295.25
0.9365,0.0635	-295.33
0.9928,0.0072	-294.78
0.9443,0.0557	-295.25
0.9502,0.0498	-295.19
0.9371,0.0629	-295.32
0.9505,0.0495	-295.19
0.9383,0.0617	-295.31
0.9916,0.0084	-294.79
0.9441,0.0559	-295.25
0.9519,0.0481	-295.17
0.9389,0.0611	-295.30
0.9492,0.0508	-295.20
0.9385,0.0615	-295.31
0.9928,0.0072	-294.78
0.9309,0.0691	-295.39
0.9625,0.0375	-295.07
0.9229,0.0771	-295.47
0.9567,0.0433	-295.13
0.9485,0.0515	-295.21
0.9908,0.0092	-294.80
0.9264,0.0736	-295.43
0.9616,0.0384	-295.08
0.9247,0.0753	-295.45
0.9526,0.0474	-295.17
0.9521,0.0479	-295.17
0.9922,0.0078	-294.79
0.9293,0.0707	-295.40
0.9650,0.0350	-295.04
0.9196,0.0804	-295.50
0.9611,0.0389	-295.08
0.9476,0.0524	-295.22
0.9935,0.0065	-294.77
0.9123,0.0877	-295.58
0.9743,0.0257	-294.95
0.9010,0.0990	-295.70
0.9601,0.0399	-295.09
0.9390,0.0610	-295.30
0.9916,0.0084	-294.79
0.9265,0.0735	-295.43
0.9765,0.0235	-294.93
0.8951,0.1049	-295.77
0.9589,0.0411	-295.10
0.9335,0.0665	-295.36
0.9915,0.0085	-294.79
0.9344,0.0656	-295.35
0.9732,0.0268	-294.96
0.8793,0.1207	-295.95
0.9482,0.0518	-295.21
0.9216,0.0784	-295.48
0.9912,0.0088	-294.80
0.9409,0.0591	-295.28
0.9755,0.0245	-294.94
0.8737,0.1263	-296.01
0.9415,0.0585	-295.28
0.9286,0.0714	-295.41
0.9921,0.0079	-294.79
0.9429,0.0571	-295.26
0.9698,0.0302	-295.00
0.8575,0.1425	-296.20
0.9491,0.0509	-295.20
0.9238,0.0762	-295.46
0.9925,0.0075	-294.78
0.9479,0.0521	-295.21
0.9673,0.0327	-295.02
0.8825,0.1175	-295.91
0.9278,0.0722	-295.42
0.9231,0.0769	-295.47
0.9931,0.0069	-294.78
0.9458,0.0542	-295.23
0.9659,0.0341	-295.03
0.9058,0.0942	-295.65
0.9331,0.0669	-295.36
0.9316,0.0684	-295.38
0.9926,0.0074	-294.78
0.9464,0.0536	-295.23
0.9706,0.0294	-294.99
0.9077,0.0923	-295.63
0.9401,0.0599	-295.29
0.9369,0.0631	-295.32
0.9940,0.0060	-294.77
0.9344,0.0656	-295.35
0.9763,0.0237	-294.93
0.9260,0.0740	-295.44
0.9376,0.0624	-295.32
0.9317,0.0683	-295.38
0.9946,0.0054	-294.76
0.9362,0.0638	-295.33
0.9705,0.0295	-294.99
0.9179,0.0821	-295.52
0.9291,0.0709	-295.40
0.9337,0.0663	-295.36
0.9927,0.0073	-294.78
0.9389,0.0611	-295.30
0.9724,0.0276	-294.97
0.9286,0.0714	-295.41
0.9317,0.0683	-295.38
0.9232,0.0768	-295.47
0.9928,0.0072	-294.78
0.9472,0.0528	-295.22
0.9795,0.0205	-294.90
0.9260,0.0740	-295.44
0.9377,0.0623	-295.32
0.9057,0.0943	-295.65
0.9921,0.0079	-294.79
0.9531,0.0469	-295.16
0.9769,0.0231	-294.93
0.9359,0.0641	-295.33
0.9310,0.0690	-295.38
0.8787,0.1213	-295.95
0.9939,0.0061	-294.77
0.9503,0.0497	-295.19
0.9750,0.0250	-294.95
0.9138,0.0862	-295.57
0.9258,0.0742	-295.44
0.9056,0.0944	-295.65
0.9928,0.0072	-294.78
0.9472,0.0528	-295.22
0.9727,0.0273	-294.97
0.9216,0.0784	-295.48
0.9077,0.0923	-295.63
0.9042,0.0958	-295.67
0.9927,0.0073	-294.78
0.9552,0.0448	-295.14
0.9664,0.0336	-295.03
0.9281,0.0719	-295.41
0.8910,0.1090	-295.81
0.9068,0.0932	-295.64
0.9920,0.0080	-294.79
0.9588,0.0412	-295.10
0.9604,0.0396	-295.09
0.9351,0.0649	-295.34
0.8905,0.1095	-295.82
0.8937,0.1063	-295.79
0.9921,0.0079	-294.79
0.9567,0.0433	-295.12
0.9685,0.0315	-295.01
0.9326,0.0674	-295.37
0.8781,0.1219	-295.96
0.9148,0.0852	-295.55
0.9933,0.0067	-294.78
0.9552,0.0448	-295.14
0.9622,0.0378	-295.07
0.9325,0.0675	-295.37
0.8897,0.1103	-295.83
0.9118,0.0882	-295.59
0.9937,0.0063	-294.77
0.9485,0.0515	-295.21
0.9679,0.0321	-295.02
0.8916,0.1084	-295.81
0.8769,0.1231	-295.98
0.9074,0.0926	-295.63
0.9941,0.0059	-294.77
0.9505,0.0495	-295.19
0.9664,0.0336	-295.03
0.8869,0.1131	-295.86
0.8741,0.1259	-296.01
0.8930,0.1070	-295.79
0.9924,0.0076	-294.78
0.9499,0.0501	-295.19
0.9728,0.0272	-294.97
0.8831,0.1169	-295.90
0.8892,0.1108	-295.84
0.8900,0.1100	-295.83
0.9932,0.0068	-294.78
0.9454,0.0546	-295.24
0.9761,0.0239	-294.94
0.8688,0.1312	-296.07
0.8793,0.1207	-295.95
0.8925,0.1075	-295.80
0.9941,0.0059	-294.77
0.9596,0.0404	-295.10
0.9690,0.0310	-295.00
0.8892,0.1108	-295.84
0.8857,0.1143	-295.88
0.9035,0.0965	-295.68
0.9934,0.0066	-294.78
0.9584,0.0416	-295.11
0.9656,0.0344	-295.04
0.8933,0.1067	-295.79
0.8977,0.1023	-295.74
0.9065,0.0935	-295.64
0.9934,0.0066	-294.77
0.9559,0.0441	-295.13
0.9664,0.0336	-295.03
0.8993,0.1007	-295.72
0.8856,0.1144	-295.88
0.8985,0.1015	-295.73
0.9903,0.0097	-294.80
0.9499,0.0501	-295.19
0.9684,0.0316	-295.01
0.8737,0.1263	-296.01
0.8628,0.1372	-296.14
0.8968,0.1032	-295.75
0.9887,0.0113	-294.82
0.9518,0.0482	-295.17
0.9666,0.0334	-295.03
0.8810,0.1190	-295.93
0.8462,0.1538	-296.34
0.8910,0.1090	-295.81
0.9881,0.0119	-294.82
0.9418,0.0582	-295.27
0.9664,0.0336	-295.03
0.8706,0.1294	-296.05
0.8337,0.1663	-296.50
0.8854,0.1146	-295.88
0.9891,0.0109	-294.82
0.9399,0.0601	-295.29
0.9650,0.0350	-295.04
0.8845,0.1155	-295.89
0.8165,0.1835	-296.72
0.8821,0.1179	-295.92
0.9875,0.0125	-294.83
0.9454,0.0546	-295.24
0.9685,0.0315	-295.01
0.8779,0.1221	-295.96
0.8342,0.1658	-296.49
0.8879,0.1121	-295.85
0.9877,0.0123	-294.83
0.9550,0.0450	-295.14
0.9673,0.0327	-295.02
0.8661,0.1339	-296.10
0.8269,0.1731	-296.58
0.8732,0.1268	-296.02
0.9879,0.0121	-294.83
0.9582,0.0418	-295.11
0.9697,0.0303	-295.00
0.8645,0.1355	-296.12
0.8270,0.1730	-296.58
0.8792,0.1208	-295.95
0.9893,0.0107	-294.81
0.9577,0.0423	-295.12
0.9748,0.0252	-294.95
0.8896,0.1104	-295.83
0.8080,0.1920	-296.83
0.8709,0.1291	-296.04
0.9879,0.0121	-294.83
0.9502,0.0498	-295.19
0.9746,0.0254	-294.95
0.8845,0.1155	-295.89
0.7959,0.2041	-296.99
0.8296,0.1704	-296.55
0.9894,0.0106	-294.81
0.9553,0.0447	-295.14
0.9778,0.0222	-294.92
0.8755,0.1245	-295.99
0.7967,0.2033	-296.98
0.8554,0.1446	-296.23
0.9900,0.0100	-294.81
0.9544,0.0456	-295.15
0.9811,0.0189	-294.89
0.8805,0.1195	-295.93
0.8199,0.1801	-296.67
0.8501,0.1499	-296.29
0.9925,0.0075	-294.78
0.9611,0.0389	-295.08
0.9807,0.0193	-294.89
0.8497,0.1503	-296.30
0.8368,0.1632	-296.46
0.8283,0.1717	-296.57
0.9936,0.0064	-294.77
0.9593,0.0407	-295.10
0.9850,0.0150	-294.85
0.8592,0.1408	-296.18
0.8258,0.1742	-296.60
0.8521,0.1479	-296.27
0.9942,0.0058	-294.77
0.9563,0.0437	-295.13
0.9844,0.0156	-294.86
0.8494,0.1506	-296.30
0.8474,0.1526	-296.33
0.8408,0.1592	-296.41
0.9946,0.0054	-294.76
0.9653,0.0347	-295.04
0.9825,0.0175	-294.88
0.8371,0.1629	-296.45
0.8250,0.1750	-296.61
0.8274,0.1726	-296.58
0.9950,0.0050	-294.76
0.9659,0.0341	-295.03
0.9851,0.0149	-294.85
0.7863,0.2137	-297.13
0.7973,0.2027	-296.97
0.8389,0.1611	-296.43
0.9944,0.0056	-294.77
0.9702,0.0298	-294.99
0.9817,0.0183	-294.88
0.7991,0.2009	-296.95
0.8167,0.1833	-296.72
0.8338,0.1662	-296.50
0.9951,0.0049	-294.76
0.9741,0.0259	-294.96
0.9836,0.0164	-294.87
0.8135,0.1865	-296.76
0.8157,0.1843	-296.73
0.8058,0.1942	-296.86
