#isoforms=['ENSG00000186575.SE.4.A.up_ENSG00000186575.SE.4.A.SE1_ENSG00000186575.SE.4.A.dn','ENSG00000186575.SE.4.B.up_ENSG00000186575.SE.4.B.dn']	exon_lens=('ENSG00000186575.SE.4.A.up',128),('ENSG00000186575.SE.4.A.SE1',163),('ENSG00000186575.SE.4.A.dn',3847),('ENSG00000186575.SE.4.B.up',128),('ENSG00000186575.SE.4.B.dn',194)	iters=5000	burn_in=500	lag=10	percent_accept=93.55	proposal_type=drift	counts=(0,0):42,(1,0):277,(1,1):39	assigned_counts=0:299,1:17	chrom=chr22	strand=+	mRNA_starts=29678196,29678196	mRNA_ends=29698598,29694945
sampled_psi	log_score
0.6476,0.3524	-2648.90
0.4431,0.5569	-2650.64
0.6716,0.3284	-2649.10
0.5700,0.4300	-2648.28
0.6742,0.3258	-2649.86
0.4544,0.5456	-2650.91
0.6639,0.3361	-2648.34
0.4917,0.5083	-2650.54
0.6346,0.3654	-2648.29
0.5607,0.4393	-2650.47
0.6897,0.3103	-2647.75
0.4694,0.5306	-2650.98
0.6758,0.3242	-2651.36
0.5214,0.4786	-2650.61
0.6898,0.3102	-2650.94
0.5395,0.4605	-2649.61
0.6774,0.3226	-2648.43
0.5361,0.4639	-2650.40
0.6517,0.3483	-2648.30
0.5331,0.4669	-2650.00
0.5876,0.4124	-2649.66
0.5551,0.4449	-2650.44
0.7100,0.2900	-2647.02
0.4804,0.5196	-2650.49
0.5918,0.4082	-2650.03
0.4591,0.5409	-2650.84
0.5043,0.4957	-2650.60
0.5469,0.4531	-2650.41
0.7004,0.2996	-2646.13
0.4400,0.5600	-2651.88
0.5919,0.4081	-2650.03
0.4455,0.5545	-2650.84
0.4793,0.5207	-2650.66
0.5798,0.4202	-2649.34
0.6689,0.3311	-2645.56
0.4166,0.5834	-2651.41
0.6002,0.3998	-2650.09
0.4579,0.5421	-2650.86
0.4718,0.5282	-2650.94
0.5708,0.4292	-2650.54
0.6844,0.3156	-2649.27
0.4951,0.5049	-2650.68
0.5958,0.4042	-2648.90
0.4750,0.5250	-2650.99
0.4946,0.5054	-2650.61
0.5531,0.4469	-2650.00
0.6505,0.3495	-2648.29
0.4682,0.5318	-2651.00
0.6012,0.3988	-2651.74
0.4363,0.5637	-2651.49
0.4825,0.5175	-2650.57
0.5622,0.4378	-2650.23
0.6722,0.3278	-2649.11
0.4493,0.5507	-2649.77
0.6125,0.3875	-2649.29
0.4535,0.5465	-2651.48
0.5066,0.4934	-2650.59
0.6043,0.3957	-2648.01
0.6404,0.3596	-2648.86
0.5488,0.4512	-2651.00
0.6197,0.3803	-2652.24
0.4752,0.5248	-2650.78
0.4861,0.5139	-2650.79
0.6308,0.3692	-2648.83
0.6771,0.3229	-2649.17
0.5081,0.4919	-2650.69
0.6486,0.3514	-2650.13
0.4795,0.5205	-2650.74
0.5317,0.4683	-2650.15
0.5358,0.4642	-2650.11
0.5996,0.4004	-2651.30
0.5284,0.4716	-2650.41
0.6601,0.3399	-2650.98
0.4417,0.5583	-2651.36
0.5815,0.4185	-2650.32
0.5412,0.4588	-2650.23
0.6401,0.3599	-2647.71
0.4866,0.5134	-2650.84
0.6749,0.3251	-2646.95
0.4110,0.5890	-2651.21
0.5603,0.4397	-2650.95
0.4845,0.5155	-2650.45
0.5995,0.4005	-2650.49
0.4341,0.5659	-2650.23
0.6947,0.3053	-2648.60
0.4223,0.5777	-2650.96
0.5207,0.4793	-2650.19
0.4644,0.5356	-2651.35
0.6032,0.3968	-2648.44
0.5030,0.4970	-2650.63
0.6919,0.3081	-2650.19
0.4654,0.5346	-2651.46
0.5566,0.4434	-2650.90
0.5625,0.4375	-2650.98
0.5477,0.4523	-2650.22
0.5189,0.4811	-2650.22
0.6883,0.3117	-2650.12
0.4752,0.5248	-2650.78
0.6127,0.3873	-2650.66
0.5245,0.4755	-2650.03
0.5774,0.4226	-2650.29
0.4694,0.5306	-2650.49
0.6300,0.3700	-2650.96
0.5053,0.4947	-2650.59
0.5830,0.4170	-2651.00
0.4860,0.5140	-2650.79
0.5824,0.4176	-2648.99
0.4514,0.5486	-2650.96
0.6354,0.3646	-2647.18
0.5026,0.4974	-2650.57
0.5561,0.4439	-2651.12
0.5063,0.4937	-2650.54
0.6184,0.3816	-2652.68
0.4895,0.5105	-2650.57
0.6471,0.3529	-2650.11
0.4705,0.5295	-2650.25
0.5566,0.4434	-2650.22
0.5180,0.4820	-2650.24
0.5646,0.4354	-2650.23
0.5131,0.4869	-2650.54
0.6377,0.3623	-2647.72
0.4581,0.5419	-2650.86
0.5860,0.4140	-2651.74
0.5080,0.4920	-2650.56
0.5925,0.4075	-2649.66
0.5344,0.4656	-2649.85
0.5642,0.4358	-2649.71
0.3928,0.6072	-2654.35
0.5829,0.4171	-2649.99
0.5179,0.4821	-2650.60
0.5433,0.4567	-2649.88
0.5251,0.4749	-2650.32
0.6000,0.4000	-2648.47
0.4224,0.5776	-2652.52
0.5384,0.4616	-2650.55
0.4552,0.5448	-2651.26
0.5461,0.4539	-2650.96
0.5528,0.4472	-2650.00
0.6304,0.3696	-2650.97
0.4522,0.5478	-2651.52
0.5524,0.4476	-2649.79
0.4748,0.5252	-2650.79
0.5772,0.4228	-2651.22
0.5982,0.4018	-2648.88
0.6656,0.3344	-2649.04
0.4564,0.5436	-2651.23
0.5619,0.4381	-2650.22
0.5049,0.4951	-2650.58
0.4986,0.5014	-2650.62
0.6024,0.3976	-2650.11
0.6454,0.3546	-2650.68
0.4899,0.5101	-2650.73
0.5809,0.4191	-2651.29
0.5179,0.4821	-2650.74
0.5444,0.4556	-2650.40
0.6397,0.3603	-2646.56
0.5926,0.4074	-2649.66
0.5145,0.4855	-2650.71
0.5880,0.4120	-2651.79
0.4908,0.5092	-2650.83
0.5817,0.4183	-2651.31
0.6405,0.3595	-2652.33
0.5684,0.4316	-2649.97
0.5135,0.4865	-2650.65
0.5642,0.4358	-2651.26
0.4755,0.5245	-2651.07
0.6028,0.3972	-2650.53
0.6320,0.3680	-2651.54
0.5120,0.4880	-2650.54
0.4820,0.5180	-2650.35
0.5977,0.4023	-2650.47
0.4684,0.5316	-2650.99
0.6160,0.3840	-2650.71
0.6193,0.3807	-2649.31
0.4878,0.5122	-2650.86
0.5119,0.4881	-2650.59
0.5913,0.4087	-2650.40
0.4231,0.5769	-2651.87
0.6028,0.3972	-2651.36
0.6152,0.3848	-2649.29
0.4745,0.5255	-2650.89
0.4839,0.5161	-2650.57
0.6184,0.3816	-2650.27
0.4473,0.5527	-2650.39
0.5737,0.4263	-2650.27
0.5783,0.4217	-2649.03
0.4454,0.5546	-2651.71
0.5052,0.4948	-2650.49
0.5900,0.4100	-2650.75
0.4718,0.5282	-2650.71
0.5775,0.4225	-2649.67
0.5625,0.4375	-2649.47
0.4708,0.5292	-2650.72
0.4603,0.5397	-2650.51
0.5825,0.4175	-2649.99
0.4585,0.5415	-2650.85
0.5532,0.4468	-2650.86
0.5556,0.4444	-2649.99
0.5092,0.4908	-2650.52
0.4626,0.5374	-2651.25
0.6021,0.3979	-2649.69
0.4753,0.5247	-2651.28
0.6042,0.3958	-2650.55
0.5782,0.4218	-2650.30
0.4764,0.5236	-2651.34
0.4785,0.5215	-2650.15
0.5808,0.4192	-2649.99
0.5052,0.4948	-2650.64
0.6073,0.3927	-2648.84
0.5430,0.4570	-2650.40
0.5155,0.4845	-2650.47
0.4752,0.5248	-2650.78
0.5337,0.4663	-2650.40
0.4417,0.5583	-2651.60
0.5780,0.4220	-2648.09
0.4864,0.5136	-2651.00
0.5561,0.4439	-2650.44
0.5101,0.4899	-2650.75
0.5445,0.4555	-2649.51
0.4115,0.5885	-2651.19
0.5634,0.4366	-2651.76
0.4115,0.5885	-2651.19
0.5979,0.4021	-2648.09
0.4462,0.5538	-2651.04
0.5098,0.4902	-2650.71
0.4474,0.5526	-2650.18
0.5693,0.4307	-2651.64
0.3401,0.6599	-2653.00
0.5420,0.4580	-2651.24
0.4852,0.5148	-2650.98
0.5719,0.4281	-2649.97
0.4018,0.5982	-2651.05
0.5936,0.4064	-2648.91
0.3820,0.6180	-2650.20
0.5396,0.4604	-2649.76
0.4674,0.5326	-2650.49
0.5542,0.4458	-2649.56
0.4277,0.5723	-2651.15
0.6089,0.3911	-2645.74
0.3758,0.6242	-2648.83
0.5424,0.4576	-2649.72
0.3997,0.6003	-2652.33
0.5192,0.4808	-2650.60
0.4239,0.5761	-2652.46
0.5323,0.4677	-2650.79
0.4279,0.5721	-2651.43
0.5144,0.4856	-2650.36
0.4562,0.5438	-2651.06
0.4346,0.5654	-2650.49
0.4776,0.5224	-2650.04
0.5145,0.4855	-2650.54
0.4564,0.5436	-2650.53
0.5589,0.4411	-2648.80
0.4900,0.5100	-2650.53
0.4493,0.5507	-2651.60
0.5512,0.4488	-2651.24
0.4949,0.5051	-2650.63
0.5070,0.4930	-2650.59
0.5807,0.4193	-2649.01
0.4419,0.5581	-2649.49
0.4513,0.5487	-2650.96
0.5106,0.4894	-2650.67
0.4635,0.5365	-2650.35
0.4828,0.5172	-2650.71
0.5822,0.4178	-2650.99
0.4355,0.5645	-2649.96
0.4641,0.5359	-2651.50
0.5137,0.4863	-2650.48
0.4555,0.5445	-2651.97
0.4233,0.5767	-2652.17
0.6195,0.3805	-2648.82
0.4712,0.5288	-2650.71
0.5007,0.4993	-2650.60
0.4632,0.5368	-2650.50
0.4103,0.5897	-2649.77
0.4650,0.5350	-2650.49
0.6418,0.3582	-2648.28
0.4803,0.5197	-2650.89
0.4073,0.5927	-2653.18
0.5310,0.4690	-2650.41
0.4025,0.5975	-2652.22
0.4397,0.5603	-2651.17
0.6710,0.3290	-2647.67
0.4899,0.5101	-2650.73
0.4618,0.5382	-2650.66
0.4733,0.5267	-2650.59
0.3888,0.6112	-2653.23
0.4336,0.5664	-2651.30
0.6548,0.3452	-2654.07
0.4610,0.5390	-2650.51
0.4061,0.5939	-2652.47
0.5242,0.4758	-2650.23
0.3914,0.6086	-2648.69
0.4063,0.5937	-2650.95
0.6694,0.3306	-2654.02
0.4751,0.5249	-2651.18
0.4102,0.5898	-2652.31
0.5726,0.4274	-2652.02
0.4764,0.5236	-2650.01
0.4718,0.5282	-2650.71
0.6305,0.3695	-2647.76
0.4842,0.5158	-2650.44
0.3965,0.6035	-2649.93
0.6329,0.3671	-2647.20
0.5555,0.4445	-2649.99
0.5047,0.4953	-2650.54
0.6736,0.3264	-2649.85
0.4942,0.5058	-2650.56
0.3528,0.6472	-2652.93
0.6130,0.3870	-2650.21
0.5578,0.4422	-2649.29
0.4735,0.5265	-2651.01
0.6759,0.3241	-2648.42
0.4704,0.5296	-2651.08
0.3667,0.6333	-2653.35
0.5675,0.4325	-2651.06
0.5520,0.4480	-2649.38
0.5023,0.4977	-2650.60
0.6431,0.3569	-2648.87
0.4672,0.5328	-2651.15
0.3824,0.6176	-2653.07
0.6141,0.3859	-2648.83
0.5353,0.4647	-2650.54
0.5114,0.4886	-2650.64
0.6211,0.3789	-2651.79
0.5001,0.4999	-2650.61
0.3787,0.6213	-2653.25
0.5696,0.4304	-2650.53
0.5307,0.4693	-2650.41
0.5794,0.4206	-2652.23
0.5968,0.4032	-2648.50
0.5485,0.4515	-2651.19
0.3853,0.6147	-2651.53
0.5530,0.4470	-2650.00
0.4718,0.5282	-2650.82
0.5638,0.4362	-2649.46
0.6259,0.3741	-2650.37
0.5745,0.4255	-2649.07
0.4712,0.5288	-2650.83
0.5803,0.4197	-2649.66
0.4945,0.5055	-2650.67
0.5209,0.4791	-2650.52
0.5870,0.4130	-2651.42
0.5888,0.4112	-2648.22
0.4958,0.5042	-2650.71
0.6500,0.3500	-2650.15
0.5190,0.4810	-2650.60
0.5234,0.4766	-2650.24
0.5794,0.4206	-2649.98
0.5910,0.4090	-2650.40
0.4677,0.5323	-2650.36
0.6855,0.3145	-2648.50
0.5190,0.4810	-2650.53
0.5493,0.4507	-2649.82
0.5898,0.4102	-2650.02
0.6010,0.3990	-2650.51
0.5464,0.4536	-2650.59
0.6904,0.3096	-2651.76
0.4888,0.5112	-2650.88
0.4985,0.5015	-2650.62
0.5469,0.4531	-2650.03
0.6157,0.3843	-2651.18
0.5550,0.4450	-2649.11
0.6511,0.3489	-2647.05
0.4695,0.5305	-2651.34
0.5935,0.4065	-2650.80
0.5016,0.4984	-2650.57
0.6260,0.3740	-2650.88
0.5272,0.4728	-2650.41
0.6103,0.3897	-2650.18
0.4400,0.5600	-2652.12
0.6233,0.3767	-2650.33
0.5304,0.4696	-2650.41
0.6831,0.3169	-2650.79
0.5616,0.4384	-2650.97
0.6089,0.3911	-2650.17
0.4284,0.5716	-2650.27
0.6156,0.3844	-2649.30
0.5608,0.4392	-2650.71
0.6897,0.3103	-2650.14
0.5556,0.4444	-2649.99
0.5644,0.4356	-2650.49
0.4627,0.5373	-2650.50
0.6494,0.3506	-2648.29
0.5378,0.4622	-2651.16
0.6693,0.3307	-2649.78
0.6284,0.3716	-2648.83
0.5368,0.4632	-2650.10
0.4786,0.5214	-2650.58
0.6208,0.3792	-2648.82
0.4903,0.5097	-2650.54
0.6883,0.3117	-2648.53
0.6419,0.3581	-2648.28
0.5492,0.4508	-2649.82
0.5474,0.4526	-2650.79
0.6535,0.3465	-2647.67
0.4885,0.5115	-2650.98
0.6836,0.3164	-2653.11
0.6694,0.3306	-2645.55
0.5735,0.4265	-2650.86
0.5438,0.4562	-2650.40
0.6562,0.3438	-2648.31
0.5110,0.4890	-2650.63
0.6641,0.3359	-2649.03
0.6576,0.3424	-2650.27
0.5331,0.4669	-2650.27
0.5158,0.4842	-2650.41
0.6250,0.3750	-2648.31
0.5593,0.4407	-2649.27
0.6986,0.3014	-2649.49
0.6541,0.3459	-2652.76
0.6004,0.3996	-2652.13
0.5072,0.4928	-2650.62
0.5867,0.4133	-2648.96
0.5829,0.4171	-2647.99
0.6867,0.3133	-2652.44
0.6033,0.3967	-2647.18
0.5447,0.4553	-2651.48
0.4953,0.5047	-2650.64
0.5913,0.4087	-2651.14
0.6236,0.3764	-2650.84
0.7359,0.2641	-2644.17
0.5822,0.4178	-2649.33
0.5125,0.4875	-2650.44
0.4708,0.5292	-2650.60
0.5098,0.4902	-2650.35
0.5900,0.4100	-2650.02
0.6822,0.3178	-2648.47
0.5523,0.4477	-2650.84
0.5034,0.4966	-2650.50
0.4558,0.5442	-2650.36
0.5362,0.4638	-2649.96
0.6247,0.3753	-2649.33
0.6302,0.3698	-2649.36
0.4878,0.5122	-2650.62
0.5057,0.4943	-2650.71
0.4562,0.5438	-2650.71
0.5266,0.4734	-2650.74
0.6139,0.3861	-2651.15
0.6414,0.3586	-2649.45
0.4817,0.5183	-2650.72
0.5164,0.4836	-2650.73
0.5023,0.4977	-2650.58
0.4931,0.5069	-2650.69
0.5841,0.4159	-2651.70
0.6314,0.3686	-2648.29
0.5542,0.4458	-2650.43
0.4409,0.5591	-2649.95
0.4893,0.5107	-2650.57
0.4752,0.5248	-2650.88
0.5363,0.4637	-2650.69
0.6496,0.3504	-2647.06
0.5268,0.4732	-2650.42
0.4803,0.5197	-2650.34
0.4620,0.5380	-2650.66
0.5154,0.4846	-2650.78
0.5658,0.4342	-2650.50
0.6378,0.3622	-2649.42
0.5627,0.4373	-2650.73
0.4713,0.5287	-2650.14
0.5333,0.4667	-2650.94
0.6309,0.3691	-2650.44
0.5561,0.4439	-2649.31
0.5833,0.4167	-2651.00
0.5423,0.4577	-2650.23
0.4875,0.5125	-2650.42
0.4682,0.5318	-2650.74
0.5889,0.4111	-2650.38
0.5490,0.4510	-2650.41
0.6070,0.3930	-2649.71
0.5304,0.4696	-2650.04
0.4556,0.5444	-2650.71
0.5433,0.4567	-2650.23
0.6018,0.3982	-2650.10
0.5112,0.4888	-2650.59
0.5983,0.4017	-2652.47
0.5699,0.4301	-2652.22
0.4474,0.5526	-2649.97
0.5243,0.4757	-2650.43
0.6001,0.3999	-2651.31
0.5313,0.4687	-2649.78
0.5928,0.4072	-2650.79
0.5512,0.4488	-2650.63
0.4748,0.5252	-2650.38
0.5146,0.4854	-2650.77
0.5646,0.4354	-2650.49
0.5317,0.4683	-2650.15
0.6404,0.3596	-2651.17
0.5488,0.4512	-2650.41
0.4984,0.5016	-2650.62
0.5550,0.4450	-2649.33
0.5708,0.4292	-2649.40
0.5885,0.4115	-2651.45
0.6585,0.3415	-2646.35
0.6392,0.3608	-2650.00
0.4999,0.5001	-2650.61
0.5713,0.4287	-2648.82
0.5001,0.4999	-2650.61
0.5609,0.4391	-2650.47
0.6432,0.3568	-2647.70
0.6484,0.3516	-2644.62
0.4486,0.5514	-2650.18
0.5159,0.4841	-2650.72
0.5640,0.4360	-2651.26
0.5865,0.4135	-2650.71
0.6652,0.3348	-2646.29
0.6467,0.3533	-2651.91
0.4641,0.5359	-2650.35
0.5584,0.4416	-2651.16
0.5737,0.4263	-2650.57
0.5851,0.4149	-2649.66
0.6610,0.3390	-2648.33
0.6104,0.3896	-2650.63
0.5462,0.4538	-2651.52
0.5379,0.4621	-2651.01
0.6371,0.3629	-2649.41
0.6387,0.3613	-2648.28
0.6736,0.3264	-2648.40
0.5782,0.4218	-2649.66
0.5394,0.4606	-2650.71
0.5517,0.4483	-2649.39
0.6624,0.3376	-2649.68
0.6734,0.3266	-2649.85
0.6741,0.3259	-2649.86
0.6027,0.3973	-2648.86
0.5273,0.4727	-2650.63
0.6197,0.3803	-2647.84
0.6442,0.3558	-2649.47
0.6606,0.3394	-2645.66
0.6560,0.3440	-2650.25
0.6370,0.3630	-2647.16
0.4919,0.5081	-2650.67
0.6753,0.3247	-2649.15
0.6359,0.3641	-2649.96
0.6168,0.3832	-2647.40
0.6817,0.3183	-2648.47
0.5988,0.4012	-2649.28
0.5054,0.4946	-2650.51
0.7012,0.2988	-2647.83
0.6050,0.3950	-2648.42
0.6203,0.3797	-2649.31
0.6835,0.3165	-2651.56
0.6428,0.3572	-2650.64
0.5007,0.4993	-2650.61
0.7410,0.2590	-2646.25
0.6204,0.3796	-2648.33
0.5816,0.4184	-2650.32
0.6443,0.3557	-2650.66
0.6451,0.3549	-2651.28
0.5608,0.4392	-2649.73
0.7295,0.2705	-2650.15
0.6748,0.3252	-2649.87
0.5439,0.4561	-2649.70
0.6400,0.3600	-2648.28
0.6044,0.3956	-2650.97
0.5992,0.4008	-2650.08
0.7476,0.2524	-2653.90
0.7083,0.2917	-2647.01
0.4807,0.5193	-2651.50
0.6138,0.3862	-2650.68
0.6383,0.3617	-2647.72
0.5984,0.4016	-2650.87
0.7532,0.2468	-2653.05
0.6961,0.3039	-2644.48
0.4958,0.5042	-2650.61
0.6786,0.3214	-2646.95
0.6584,0.3416	-2648.32
0.5769,0.4231	-2651.53
0.7845,0.2155	-2646.79
0.6379,0.3621	-2648.85
0.4795,0.5205	-2651.07
0.6829,0.3171	-2650.01
0.6430,0.3570	-2647.70
0.6004,0.3996	-2651.31
0.7762,0.2238	-2647.89
0.6355,0.3645	-2648.29
0.4287,0.5713	-2649.12
0.6205,0.3795	-2649.80
0.6435,0.3565	-2648.29
0.6429,0.3571	-2649.46
0.7832,0.2168	-2644.20
0.6573,0.3427	-2647.01
0.4147,0.5853	-2651.46
0.6006,0.3994	-2650.50
0.6146,0.3854	-2649.76
0.6627,0.3373	-2653.06
0.7745,0.2255	-2641.69
0.6357,0.3643	-2649.96
0.4603,0.5397	-2652.42
0.6550,0.3450	-2652.79
0.6076,0.3924	-2648.40
0.6427,0.3573	-2651.81
0.7508,0.2492	-2648.54
0.6256,0.3744	-2649.85
0.5184,0.4816	-2650.31
0.6519,0.3481	-2650.81
0.6219,0.3781	-2648.32
0.6181,0.3819	-2649.30
0.7708,0.2292	-2649.00
0.6142,0.3858	-2648.36
0.5207,0.4793	-2650.44
0.6376,0.3624	-2652.81
0.5886,0.4114	-2650.38
0.5877,0.4123	-2650.72
0.7497,0.2503	-2646.32
0.6982,0.3018	-2646.97
0.5391,0.4609	-2650.40
0.6316,0.3684	-2647.22
0.6116,0.3884	-2647.92
0.6138,0.3862	-2651.61
0.8054,0.1946	-2644.38
0.7239,0.2761	-2645.19
0.4949,0.5051	-2650.61
0.6009,0.3991	-2649.69
0.5912,0.4088	-2650.03
0.5881,0.4119	-2648.59
0.8133,0.1867	-2650.36
0.7422,0.2578	-2644.14
0.5008,0.4992	-2650.61
0.6148,0.3852	-2649.29
0.5981,0.4019	-2652.46
0.5715,0.4285	-2650.55
0.8043,0.1957	-2648.61
0.7359,0.2641	-2650.31
0.4830,0.5170	-2650.57
0.6389,0.3611	-2648.28
0.5914,0.4086	-2648.55
0.5718,0.4282	-2648.53
0.7818,0.2182	-2645.47
0.7467,0.2533	-2641.97
0.4398,0.5602	-2652.13
0.5937,0.4063	-2652.32
0.6175,0.3825	-2649.30
0.5870,0.4130	-2648.60
0.8120,0.1880	-2641.53
0.7446,0.2554	-2650.56
0.4825,0.5175	-2650.85
0.6072,0.3928	-2647.97
0.5578,0.4422	-2650.22
0.5836,0.4164	-2647.97
0.8112,0.1888	-2647.36
0.7731,0.2269	-2646.60
0.4738,0.5262	-2649.86
0.6783,0.3217	-2646.20
0.6036,0.3964	-2649.70
0.5059,0.4941	-2650.66
0.7600,0.2400	-2646.43
0.7991,0.2009	-2645.70
0.4610,0.5390	-2650.35
0.6464,0.3536	-2648.89
0.5527,0.4473	-2649.79
0.5263,0.4737	-2649.89
0.7821,0.2179	-2640.36
0.8131,0.1869	-2645.94
0.4485,0.5515	-2651.42
0.6315,0.3685	-2650.99
0.5330,0.4670	-2650.93
0.5153,0.4847	-2650.59
0.7734,0.2266	-2641.70
0.8361,0.1639	-2639.96
0.4877,0.5123	-2650.72
0.6806,0.3194	-2654.51
0.5654,0.4346	-2649.97
0.6092,0.3908	-2648.84
0.7637,0.2363	-2644.13
0.8354,0.1646	-2641.58
0.4753,0.5247	-2650.78
0.7010,0.2990	-2646.13
0.5315,0.4685	-2650.03
0.6426,0.3574	-2647.70
0.7929,0.2071	-2650.98
0.8129,0.1871	-2644.47
0.4606,0.5394	-2651.46
0.6749,0.3251	-2646.95
0.4726,0.5274	-2650.26
0.6523,0.3477	-2653.96
0.7831,0.2169	-2648.05
0.7945,0.2055	-2637.51
0.5241,0.4759	-2650.14
0.7140,0.2860	-2647.04
0.4967,0.5033	-2650.62
0.6479,0.3521	-2650.73
0.7897,0.2103	-2645.56
0.8135,0.1865	-2648.90
0.5463,0.4537	-2650.78
0.7225,0.2775	-2646.15
0.5568,0.4432	-2651.59
0.6295,0.3705	-2649.89
0.7961,0.2039	-2644.29
0.8034,0.1966	-2652.80
0.4961,0.5039	-2650.62
0.6899,0.3101	-2647.75
0.5665,0.4335	-2651.04
0.5736,0.4264	-2649.68
0.8073,0.1927	-2645.83
0.8104,0.1896	-2642.99
0.5719,0.4281	-2651.42
0.7203,0.2797	-2644.25
0.5270,0.4730	-2650.42
0.5903,0.4097	-2648.93
0.8162,0.1838	-2644.51
0.7942,0.2058	-2651.02
0.6404,0.3596	-2649.44
0.7577,0.2423	-2648.68
0.5274,0.4726	-2650.30
0.5496,0.4504	-2650.22
0.8037,0.1963	-2644.36
0.7869,0.2131	-2641.61
0.6373,0.3627	-2648.29
0.7718,0.2282	-2646.58
0.5033,0.4967	-2650.66
0.5408,0.4592	-2650.73
0.7708,0.2292	-2645.36
0.8020,0.1980	-2647.14
0.6395,0.3605	-2648.86
0.7419,0.2581	-2643.09
0.4969,0.5031	-2650.57
0.5070,0.4930	-2650.65
0.7859,0.2141	-2645.51
0.7759,0.2241	-2650.37
0.6040,0.3960	-2649.28
0.7536,0.2464	-2646.36
0.4687,0.5313	-2650.86
0.5205,0.4795	-2650.20
0.7865,0.2135	-2641.61
0.6922,0.3078	-2647.76
0.6322,0.3678	-2647.75
0.7315,0.2685	-2650.20
0.4789,0.5211	-2650.41
0.5321,0.4679	-2649.76
0.7598,0.2402	-2647.58
0.6801,0.3199	-2646.19
0.6503,0.3497	-2652.02
0.7387,0.2613	-2653.51
0.5035,0.4965	-2650.68
0.5251,0.4749	-2650.52
0.7402,0.2598	-2647.29
0.7279,0.2721	-2645.19
0.5943,0.4057	-2647.76
0.7236,0.2764	-2649.04
0.5450,0.4550	-2650.22
0.5474,0.4526	-2650.03
0.7381,0.2619	-2644.16
0.7449,0.2551	-2645.21
0.5365,0.4635	-2650.98
0.6843,0.3157	-2651.59
0.5496,0.4504	-2650.61
0.5519,0.4481	-2649.80
0.7705,0.2295	-2650.20
0.6919,0.3081	-2647.76
0.5436,0.4564	-2649.88
0.6848,0.3152	-2646.17
0.5270,0.4730	-2650.31
0.5611,0.4389	-2649.73
0.7913,0.2087	-2653.58
0.6089,0.3911	-2650.61
0.5701,0.4299	-2649.40
0.6558,0.3442	-2647.66
0.4751,0.5249	-2650.48
0.5502,0.4498	-2649.81
0.7679,0.2321	-2641.74
0.6131,0.3869	-2648.37
0.5265,0.4735	-2650.52
0.6169,0.3831	-2650.73
0.4706,0.5294	-2650.25
0.5461,0.4539	-2650.59
0.7656,0.2344	-2641.77
0.5342,0.4658	-2650.81
0.5720,0.4280	-2650.26
0.6171,0.3829	-2648.82
0.4338,0.5662	-2652.36
0.5704,0.4296	-2650.82
0.7239,0.2761	-2646.16
0.4276,0.5724	-2652.03
0.6627,0.3373	-2649.69
0.5968,0.4032	-2648.10
0.4359,0.5641	-2652.02
0.5787,0.4213	-2650.62
0.7013,0.2987	-2648.69
0.4769,0.5231	-2650.95
0.7204,0.2796	-2648.04
0.5486,0.4514	-2651.58
0.4364,0.5636	-2650.47
0.5598,0.4402	-2650.94
0.6914,0.3086	-2650.18
0.4205,0.5795	-2651.95
0.7221,0.2779	-2643.28
0.5748,0.4252	-2649.97
0.4191,0.5809	-2650.69
0.5284,0.4716	-2650.64
0.6696,0.3304	-2645.55
0.4253,0.5747	-2651.50
0.6128,0.3872	-2650.67
0.5523,0.4477	-2650.01
0.4333,0.5667	-2651.30
0.4732,0.5268	-2650.70
0.6766,0.3234	-2649.16
0.4108,0.5892	-2651.93
0.5757,0.4243	-2649.36
0.5993,0.4007	-2650.49
0.4688,0.5312	-2651.11
0.4543,0.5457	-2649.81
0.6923,0.3077	-2647.76
0.3888,0.6112	-2649.16
0.6087,0.3913	-2648.84
0.5856,0.4144	-2648.27
0.4266,0.5734	-2652.06
0.4497,0.5503	-2651.39
0.6769,0.3231	-2648.43
0.4345,0.5655	-2651.80
0.5572,0.4428	-2651.82
0.6859,0.3141	-2649.29
0.3963,0.6037	-2652.46
0.4702,0.5298	-2650.60
0.7071,0.2929	-2648.77
0.4424,0.5576	-2651.11
0.5202,0.4798	-2650.69
0.7260,0.2740	-2646.16
0.4635,0.5365	-2651.52
0.4095,0.5905	-2652.34
0.7134,0.2866	-2645.22
0.4575,0.5425	-2650.18
0.5179,0.4821	-2650.67
0.7209,0.2791	-2646.15
0.4634,0.5366	-2650.06
0.3769,0.6231	-2652.34
0.7169,0.2831	-2648.92
0.4335,0.5665	-2649.96
0.5406,0.4594	-2650.56
0.6441,0.3559	-2647.69
0.4695,0.5305	-2650.49
0.4525,0.5475	-2650.56
0.7366,0.2634	-2648.28
0.4289,0.5711	-2649.12
0.4888,0.5112	-2650.53
0.5983,0.4017	-2648.48
0.4511,0.5489	-2650.57
0.4132,0.5868	-2651.15
0.7328,0.2672	-2646.20
0.4654,0.5346	-2651.19
0.5254,0.4746	-2650.83
0.5155,0.4845	-2650.47
0.4435,0.5565	-2649.28
0.3779,0.6221	-2652.29
0.7161,0.2839	-2651.68
0.4257,0.5743	-2651.79
0.4832,0.5168	-2650.90
0.4974,0.5026	-2650.61
0.4341,0.5659	-2651.55
0.3730,0.6270	-2651.99
0.7289,0.2711	-2646.18
0.4626,0.5374	-2650.95
0.5085,0.4915	-2650.56
0.4652,0.5348	-2650.49
0.4384,0.5616	-2650.95
0.4217,0.5783	-2650.02
0.6891,0.3109	-2650.13
0.4757,0.5243	-2650.88
0.5414,0.4586	-2650.57
0.4491,0.5509	-2650.38
0.4290,0.5710	-2651.41
0.4906,0.5094	-2650.65
0.7057,0.2943	-2648.75
0.5113,0.4887	-2650.59
0.4831,0.5169	-2650.50
0.4337,0.5663	-2652.10
0.4518,0.5482	-2652.11
0.4801,0.5199	-2651.05
0.6930,0.3070	-2647.77
0.4493,0.5507	-2651.60
0.4736,0.5264	-2650.91
0.4500,0.5500	-2650.38
0.5074,0.4926	-2650.50
0.4679,0.5321	-2650.36
0.7145,0.2855	-2653.47
0.4909,0.5091	-2650.58
0.4461,0.5539	-2650.61
0.4148,0.5852	-2649.39
0.5163,0.4837	-2650.33
0.4231,0.5769	-2652.18
0.6851,0.3149	-2649.28
0.4906,0.5094	-2650.54
0.4915,0.5085	-2650.78
0.4112,0.5888	-2650.48
0.5523,0.4477	-2650.63
0.4041,0.5959	-2651.77
0.7203,0.2797	-2646.14
0.4468,0.5532	-2652.96
0.5012,0.4988	-2650.62
0.3968,0.6032	-2652.02
0.5855,0.4145	-2650.69
0.3980,0.6020	-2652.39
0.7507,0.2493	-2645.23
0.4369,0.5631	-2651.73
0.4554,0.5446	-2650.90
0.4077,0.5923	-2649.05
0.5997,0.4003	-2649.28
0.4227,0.5773	-2650.33
0.7462,0.2538	-2650.61
0.4466,0.5534	-2651.25
0.4584,0.5416	-2651.02
0.4079,0.5921	-2650.54
0.5788,0.4212	-2649.98
0.4192,0.5808	-2652.00
0.7156,0.2844	-2646.13
0.4561,0.5439	-2650.00
0.4431,0.5569	-2652.47
0.3933,0.6067	-2652.15
0.5535,0.4465	-2650.21
0.5012,0.4988	-2650.60
0.6983,0.3017	-2645.29
0.5187,0.4813	-2650.60
0.4828,0.5172	-2650.50
0.4680,0.5320	-2651.13
0.5462,0.4538	-2650.59
0.5391,0.4609	-2650.40
0.7518,0.2482	-2650.77
0.5341,0.4659	-2650.67
0.5211,0.4789	-2650.69
0.4444,0.5556	-2651.30
0.5244,0.4756	-2650.13
0.5625,0.4375	-2651.48
0.7204,0.2796	-2647.09
0.5437,0.4563	-2649.70
0.5302,0.4698	-2650.89
0.5667,0.4333	-2651.58
0.5205,0.4795	-2650.69
0.5714,0.4286	-2650.26
0.7468,0.2532	-2646.30
0.5345,0.4655	-2650.40
0.5500,0.4500	-2649.61
0.5972,0.4028	-2650.86
0.5384,0.4616	-2650.55
0.5491,0.4509	-2649.03
0.7173,0.2827	-2648.93
0.5724,0.4276	-2648.80
0.5599,0.4401	-2650.46
0.6825,0.3175	-2647.71
0.5747,0.4253	-2648.17
0.5120,0.4880	-2650.40
0.6955,0.3045	-2645.31
0.5398,0.4602	-2651.04
0.5264,0.4736	-2650.52
0.6121,0.3879	-2648.37
0.5615,0.4385	-2649.48
0.5232,0.4768	-2650.24
0.6778,0.3222	-2653.64
0.5333,0.4667	-2650.80
0.5618,0.4382	-2649.73
0.5913,0.4087	-2652.62
0.5243,0.4757	-2650.43
0.5605,0.4395	-2650.71
0.6793,0.3207	-2646.19
0.5691,0.4309	-2650.53
0.5172,0.4828	-2650.67
0.5397,0.4603	-2650.88
0.5992,0.4008	-2649.68
0.5929,0.4071	-2650.42
0.7140,0.2860	-2647.04
0.5821,0.4179	-2650.65
0.5129,0.4871	-2650.49
0.5312,0.4688	-2650.16
0.6048,0.3952	-2650.55
0.5896,0.4104	-2648.94
0.7226,0.2774	-2648.07
0.6242,0.3758	-2649.84
0.6054,0.3946	-2649.71
0.5326,0.4674	-2650.14
0.5709,0.4291	-2649.40
0.6161,0.3839	-2650.24
0.7205,0.2795	-2647.09
0.5651,0.4349	-2649.19
0.6203,0.3797	-2648.82
0.5970,0.4030	-2650.85
0.5276,0.4724	-2650.63
0.6373,0.3627	-2647.16
0.7029,0.2971	-2650.43
0.5534,0.4466	-2650.43
0.6944,0.3056	-2649.42
0.5670,0.4330	-2650.78
0.5314,0.4686	-2650.91
0.6345,0.3655	-2647.74
0.7245,0.2755	-2650.03
0.5215,0.4785	-2651.04
0.7256,0.2744	-2651.02
0.5514,0.4486	-2649.18
0.4761,0.5239	-2650.77
0.6768,0.3232	-2646.21
0.6996,0.3004	-2649.51
0.5538,0.4462	-2650.43
0.6628,0.3372	-2649.01
0.5453,0.4547	-2650.40
0.4461,0.5539	-2651.04
0.6800,0.3200	-2649.21
0.7368,0.2632	-2654.45
0.5722,0.4278	-2649.68
0.6936,0.3064	-2646.96
0.5136,0.4864	-2650.48
0.4394,0.5606	-2651.66
0.6935,0.3065	-2649.40
0.7176,0.2824	-2650.80
0.5553,0.4447	-2649.77
0.6761,0.3239	-2645.48
0.5111,0.4889	-2650.28
0.4986,0.5014	-2650.61
0.7169,0.2831	-2646.14
0.6148,0.3852	-2650.23
0.6179,0.3821	-2646.42
0.6510,0.3490	-2650.79
0.5365,0.4635	-2650.54
0.4731,0.5269	-2650.92
0.6143,0.3857	-2647.43
0.6276,0.3724	-2649.35
0.6095,0.3905	-2647.50
0.6011,0.3989	-2652.15
0.4686,0.5314	-2650.36
0.4443,0.5557	-2651.30
0.5403,0.4597	-2650.40
0.6080,0.3920	-2648.40
0.5265,0.4735	-2649.89
0.6373,0.3627	-2648.85
0.4994,0.5006	-2650.60
0.4750,0.5250	-2650.88
0.6151,0.3849	-2648.36
0.5990,0.4010	-2650.48
0.5910,0.4090	-2648.93
0.6664,0.3336	-2652.51
0.5249,0.4751	-2650.32
0.5186,0.4814	-2650.75
0.6215,0.3785	-2646.84
0.6040,0.3960	-2649.70
0.5851,0.4149	-2650.00
0.6442,0.3558	-2647.69
0.5330,0.4670	-2650.40
0.5202,0.4798	-2650.36
0.6668,0.3332	-2647.66
0.6141,0.3859	-2648.36
0.5900,0.4100	-2651.48
0.6610,0.3390	-2650.33
0.5171,0.4829	-2650.46
0.5294,0.4706	-2650.29
0.7125,0.2875	-2647.94
0.6208,0.3792	-2649.81
0.6188,0.3812	-2647.85
0.6252,0.3748	-2650.87
0.5536,0.4464	-2650.86
0.5371,0.4629	-2649.80
0.7300,0.2700	-2645.19
0.6169,0.3831	-2647.87
0.6447,0.3553	-2653.05
0.6495,0.3505	-2645.83
0.5090,0.4910	-2650.81
0.5483,0.4517	-2650.41
0.7694,0.2306	-2642.94
0.6527,0.3473	-2650.19
0.6129,0.3871	-2652.51
0.6067,0.3933	-2652.75
0.5224,0.4776	-2650.25
0.5328,0.4672	-2650.53
0.7716,0.2284	-2641.71
0.6149,0.3851	-2648.83
0.5729,0.4271	-2650.85
0.6400,0.3600	-2648.28
0.5169,0.4831	-2650.66
0.5136,0.4864	-2650.16
0.7455,0.2545	-2646.29
0.6646,0.3354	-2644.93
0.5683,0.4317	-2650.79
0.6657,0.3343	-2651.80
0.5199,0.4801	-2650.13
0.4835,0.5165	-2650.44
0.7454,0.2546	-2648.43
0.6068,0.3932	-2648.41
0.5776,0.4224	-2651.23
0.6309,0.3691	-2649.37
0.4831,0.5169	-2650.84
0.5364,0.4636	-2650.11
0.7550,0.2450	-2648.63
0.6186,0.3814	-2649.79
0.5841,0.4159	-2650.00
0.6105,0.3895	-2650.18
0.4743,0.5257	-2650.79
0.5102,0.4898	-2650.43
0.7242,0.2758	-2646.16
0.6111,0.3889	-2650.64
0.6390,0.3610	-2651.14
0.6308,0.3692	-2651.51
0.5105,0.4895	-2650.67
0.5309,0.4691	-2649.91
0.7096,0.2904	-2648.80
0.6590,0.3410	-2650.96
0.6783,0.3217	-2651.42
0.6342,0.3658	-2651.04
0.4352,0.5648	-2652.05
0.5390,0.4610	-2650.40
0.7118,0.2882	-2647.94
0.6765,0.3235	-2652.11
0.6348,0.3652	-2651.05
0.6018,0.3982	-2650.93
0.4750,0.5250	-2651.39
0.4772,0.5228	-2651.03
0.7137,0.2863	-2645.22
0.6737,0.3263	-2648.40
0.5797,0.4203	-2651.27
0.5828,0.4172	-2651.67
0.4877,0.5123	-2650.96
0.4533,0.5467	-2650.55
0.7052,0.2948	-2642.63
0.6302,0.3698	-2647.76
0.5602,0.4398	-2650.46
0.5620,0.4380	-2650.47
0.4941,0.5059	-2650.70
0.4499,0.5501	-2650.78
0.7427,0.2573	-2647.32
0.6198,0.3802	-2648.33
0.5978,0.4022	-2647.30
0.5458,0.4542	-2650.41
0.5386,0.4614	-2651.02
0.5543,0.4457	-2650.43
0.6857,0.3143	-2646.94
0.5942,0.4058	-2651.96
0.5822,0.4178	-2649.99
0.4681,0.5319	-2650.49
0.5273,0.4727	-2650.41
0.5480,0.4520	-2650.60
0.7156,0.2844	-2647.06
0.5695,0.4305	-2649.69
0.5800,0.4200	-2652.24
0.4805,0.5195	-2650.88
0.4800,0.5200	-2651.13
0.5628,0.4372	-2649.47
0.6717,0.3283	-2648.39
0.4995,0.5005	-2650.61
0.6126,0.3874	-2648.37
0.5176,0.4824	-2650.53
0.5044,0.4956	-2650.60
0.5691,0.4309	-2650.53
0.7086,0.2914	-2646.12
0.4947,0.5053	-2650.63
0.6124,0.3876	-2652.49
0.5273,0.4727	-2650.52
0.5252,0.4748	-2650.72
0.4961,0.5039	-2650.57
0.6683,0.3317	-2649.77
0.5576,0.4424	-2650.91
0.6355,0.3645	-2647.73
0.5064,0.4936	-2650.64
0.5209,0.4791	-2650.36
0.5522,0.4478	-2650.01
0.6767,0.3233	-2649.90
0.5305,0.4695	-2650.16
0.6284,0.3716	-2651.98
0.4683,0.5317	-2650.23
0.5360,0.4640	-2650.40
0.5296,0.4704	-2650.88
0.6770,0.3230	-2653.61
0.5136,0.4864	-2650.65
0.6298,0.3702	-2648.30
0.4551,0.5449	-2650.72
0.5777,0.4223	-2651.86
0.5401,0.4599	-2650.56
0.6801,0.3199	-2646.19
0.5201,0.4799	-2650.85
0.5535,0.4465	-2651.93
0.5193,0.4807	-2650.29
0.6041,0.3959	-2649.28
0.5246,0.4754	-2649.73
0.6833,0.3167	-2650.79
0.5151,0.4849	-2650.29
0.6203,0.3797	-2650.78
0.4776,0.5224	-2650.67
0.5794,0.4206	-2649.98
0.5037,0.4963	-2650.58
0.6985,0.3015	-2652.85
0.5078,0.4922	-2650.56
0.6232,0.3768	-2647.31
0.4509,0.5491	-2650.17
0.5653,0.4347	-2650.76
0.5478,0.4522	-2650.22
0.7044,0.2956	-2649.60
0.4940,0.5060	-2650.58
0.5915,0.4085	-2649.66
0.4068,0.5932	-2650.18
0.5727,0.4273	-2649.68
0.5586,0.4414	-2649.98
0.7071,0.2929	-2651.41
0.5044,0.4956	-2650.58
0.5338,0.4662	-2649.45
0.4388,0.5612	-2651.68
0.5336,0.4664	-2650.94
0.5312,0.4688	-2650.15
0.7064,0.2936	-2646.12
0.5366,0.4634	-2649.81
0.5165,0.4835	-2650.33
0.4117,0.5883	-2649.76
0.4755,0.5245	-2650.29
0.4965,0.5035	-2650.61
0.6987,0.3013	-2644.45
0.5392,0.4608	-2650.08
0.4914,0.5086	-2650.64
0.4544,0.5456	-2651.28
0.4217,0.5783	-2650.02
0.5524,0.4476	-2650.85
0.6476,0.3524	-2649.51
0.5881,0.4119	-2650.73
0.4968,0.5032	-2650.58
0.5144,0.4856	-2650.48
0.4306,0.5694	-2650.53
0.6083,0.3917	-2650.60
0.6511,0.3489	-2652.66
0.5757,0.4243	-2650.89
0.5251,0.4749	-2650.82
0.5569,0.4431	-2649.76
0.4943,0.5057	-2650.47
0.6219,0.3781	-2648.82
0.6376,0.3624	-2649.98
0.6014,0.3986	-2649.69
0.5257,0.4743	-2650.52
0.5903,0.4097	-2649.30
0.5452,0.4548	-2650.77
0.6676,0.3324	-2649.76
0.6094,0.3906	-2650.17
0.5639,0.4361	-2649.97
0.5189,0.4811	-2650.60
0.6166,0.3834	-2649.30
0.5643,0.4357	-2649.71
0.7258,0.2742	-2650.06
0.5753,0.4247	-2650.89
0.5417,0.4583	-2649.90
0.5421,0.4579	-2650.40
0.5949,0.4051	-2650.82
0.5030,0.4970	-2650.53
0.6996,0.3004	-2647.82
0.5969,0.4031	-2651.25
0.5065,0.4935	-2650.41
0.5833,0.4167	-2650.33
0.5886,0.4114	-2648.94
0.5296,0.4704	-2649.93
0.7133,0.2867	-2646.13
0.6334,0.3666	-2646.65
0.5715,0.4285	-2651.41
0.5599,0.4401	-2649.26
0.5948,0.4052	-2648.90
0.5444,0.4556	-2649.69
0.7503,0.2497	-2646.33
0.6484,0.3516	-2650.13
0.6149,0.3851	-2648.83
0.5903,0.4097	-2648.93
0.5641,0.4359	-2651.00
0.4973,0.5027	-2650.61
0.6707,0.3293	-2647.67
0.6747,0.3253	-2649.87
0.5799,0.4201	-2650.95
0.5115,0.4885	-2650.50
0.5712,0.4288	-2650.83
0.5364,0.4636	-2650.11
0.6425,0.3575	-2650.04
0.6818,0.3182	-2653.80
0.6414,0.3586	-2651.77
0.5032,0.4968	-2650.65
0.5410,0.4590	-2650.73
0.5142,0.4858	-2650.31
0.6370,0.3630	-2647.72
0.6845,0.3155	-2649.27
0.6419,0.3581	-2647.70
0.5323,0.4677	-2650.66
0.5171,0.4829	-2650.60
0.5204,0.4796	-2650.44
0.6329,0.3671	-2649.38
0.6447,0.3553	-2650.07
0.5985,0.4015	-2648.48
0.5489,0.4511	-2650.81
0.5222,0.4778	-2650.79
0.4898,0.5102	-2650.82
0.6298,0.3702	-2649.36
0.6339,0.3661	-2648.84
0.6071,0.3929	-2649.28
0.4952,0.5048	-2650.66
0.5572,0.4428	-2650.22
0.4479,0.5521	-2651.85
0.6551,0.3449	-2650.87
0.6243,0.3757	-2651.87
0.6067,0.3933	-2647.54
0.5256,0.4744	-2649.70
0.5492,0.4508	-2649.43
0.4915,0.5085	-2650.58
0.6815,0.3185	-2646.18
0.5873,0.4127	-2648.25
0.6724,0.3276	-2649.11
0.5470,0.4530	-2650.41
0.5187,0.4813	-2650.60
0.5309,0.4691	-2650.41
0.6641,0.3359	-2646.98
0.6042,0.3958	-2646.74
0.7127,0.2873	-2654.30
0.5915,0.4085	-2651.14
0.5488,0.4512	-2650.22
0.5401,0.4599	-2650.88
0.6502,0.3498	-2648.29
0.6266,0.3734	-2651.41
0.6252,0.3748	-2650.87
0.5888,0.4112	-2650.02
0.5573,0.4427	-2649.76
0.5018,0.4982	-2650.57
0.6280,0.3720	-2648.30
0.6250,0.3750	-2650.35
0.5767,0.4233	-2648.74
0.6133,0.3867	-2649.75
0.5181,0.4819	-2650.53
0.5473,0.4527	-2650.98
0.6509,0.3491	-2649.54
0.6081,0.3919	-2648.84
0.5437,0.4563	-2650.05
0.5448,0.4552	-2650.58
0.5644,0.4356	-2651.01
0.5809,0.4191	-2649.66
0.6405,0.3595	-2648.86
0.6070,0.3930	-2650.15
0.5875,0.4125	-2649.66
0.5699,0.4301	-2650.25
0.5565,0.4435	-2650.90
0.6068,0.3932	-2649.71
0.5688,0.4312	-2651.35
0.5602,0.4398	-2649.25
0.6158,0.3842	-2649.77
0.5239,0.4761	-2650.81
0.5337,0.4663	-2650.13
0.6724,0.3276	-2650.55
0.5886,0.4114	-2650.38
0.5937,0.4063	-2651.94
0.6023,0.3977	-2650.52
0.5140,0.4860	-2650.54
0.4828,0.5172	-2650.91
0.7012,0.2988	-2646.13
0.5901,0.4099	-2648.20
0.6348,0.3652	-2649.95
0.5800,0.4200	-2649.66
0.5369,0.4631	-2649.81
0.4776,0.5224	-2650.31
0.7190,0.2810	-2655.54
0.5753,0.4247	-2650.58
0.6264,0.3736	-2647.79
0.5807,0.4193	-2650.31
0.5922,0.4078	-2649.66
0.4815,0.5185	-2650.72
0.7379,0.2621	-2645.19
0.5984,0.4016	-2650.48
0.5843,0.4157	-2650.34
0.5836,0.4164	-2649.66
0.5923,0.4077	-2650.78
0.4559,0.5441	-2650.71
0.7557,0.2443	-2647.51
0.6165,0.3835	-2652.62
0.5861,0.4139	-2649.31
0.6016,0.3984	-2649.69
0.6224,0.3776	-2648.32
0.4350,0.5650	-2651.53
0.7418,0.2582	-2647.31
0.6331,0.3669	-2649.38
0.5364,0.4636	-2650.98
0.6160,0.3840	-2649.77
0.6540,0.3460	-2648.30
0.4486,0.5514	-2650.79
0.7525,0.2475	-2645.24
0.5535,0.4465	-2650.00
0.5665,0.4335	-2651.31
0.5859,0.4141	-2651.05
0.6519,0.3481	-2649.55
0.4464,0.5536	-2650.39
0.7843,0.2157	-2648.08
0.5598,0.4402	-2648.78
0.5319,0.4681	-2650.66
0.5308,0.4692	-2650.53
0.6208,0.3792	-2651.78
0.4468,0.5532	-2651.03
0.7864,0.2136	-2646.82
0.5692,0.4308	-2649.69
0.5164,0.4836	-2650.53
0.5148,0.4852	-2650.42
0.6441,0.3559	-2650.07
0.4296,0.5704	-2649.98
0.7498,0.2502	-2644.13
0.5469,0.4531	-2650.60
0.5488,0.4512	-2650.61
0.5369,0.4631	-2650.55
0.6029,0.3971	-2650.95
0.4474,0.5526	-2650.18
0.7013,0.2987	-2646.13
0.5572,0.4428	-2649.30
0.5546,0.4454	-2650.00
0.5054,0.4946	-2650.57
0.5773,0.4227	-2649.98
0.4613,0.5387	-2651.44
0.7016,0.2984	-2647.84
0.5670,0.4330	-2649.97
0.5706,0.4294	-2651.96
0.5329,0.4671	-2651.19
0.5954,0.4046	-2650.83
0.5008,0.4992	-2650.60
0.6689,0.3311	-2647.67
0.6858,0.3142	-2646.94
0.5845,0.4155	-2651.71
0.4954,0.5046	-2650.68
0.6363,0.3637	-2649.96
0.5171,0.4829	-2650.26
0.6928,0.3072	-2649.39
0.6578,0.3422	-2646.36
0.6084,0.3916	-2651.04
0.4871,0.5129	-2650.41
0.6661,0.3339	-2653.88
0.4632,0.5368	-2650.80
0.6528,0.3472	-2650.19
0.5918,0.4082	-2651.89
0.5773,0.4227	-2651.23
0.4968,0.5032	-2650.64
0.6615,0.3385	-2650.34
0.4025,0.5975	-2651.43
0.6590,0.3410	-2648.32
0.6055,0.3945	-2651.85
0.5844,0.4156	-2650.68
0.4854,0.5146	-2651.04
0.6312,0.3688	-2650.98
0.4309,0.5691	-2649.97
0.6863,0.3137	-2649.29
0.6329,0.3671	-2647.75
0.6170,0.3830	-2648.82
0.5022,0.4978	-2650.56
0.6114,0.3886	-2651.55
0.4151,0.5849	-2649.74
0.7002,0.2998	-2646.13
0.6016,0.3984	-2649.28
0.6447,0.3553	-2648.29
0.5049,0.4951	-2650.65
0.6333,0.3667	-2646.10
0.4827,0.5173	-2650.78
0.6931,0.3069	-2651.84
0.6435,0.3565	-2651.83
0.5996,0.4004	-2650.09
0.5193,0.4807	-2650.68
0.6766,0.3234	-2650.64
0.4340,0.5660	-2650.76
0.6517,0.3483	-2650.18
0.6186,0.3814	-2645.92
0.5666,0.4334	-2651.85
0.5255,0.4745	-2650.62
0.6362,0.3638	-2652.76
0.4468,0.5532	-2649.54
0.6713,0.3287	-2653.38
0.6318,0.3682	-2651.53
0.5018,0.4982	-2650.57
0.5182,0.4818	-2650.75
0.6640,0.3360	-2649.71
0.4500,0.5500	-2652.18
0.6866,0.3134	-2650.08
0.6526,0.3474	-2646.41
0.5378,0.4622	-2650.70
0.5332,0.4668	-2650.14
0.6767,0.3233	-2649.16
0.4532,0.5468	-2651.12
0.6316,0.3684	-2647.22
0.6686,0.3314	-2649.77
0.5929,0.4071	-2649.29
0.6003,0.3997	-2651.31
0.6725,0.3275	-2646.24
0.4996,0.5004	-2650.60
0.6262,0.3738	-2647.28
0.6523,0.3477	-2652.07
0.5967,0.4033	-2652.42
0.6353,0.3647	-2651.62
0.6846,0.3154	-2650.82
0.5480,0.4520	-2650.41
0.6267,0.3733	-2649.34
0.6194,0.3806	-2649.31
0.5611,0.4389	-2649.24
0.6400,0.3600	-2650.59
0.6796,0.3204	-2644.69
0.5761,0.4239	-2648.44
0.6215,0.3785	-2651.30
0.5786,0.4214	-2649.03
0.5629,0.4371	-2648.96
0.5755,0.4245	-2649.67
0.6743,0.3257	-2646.22
0.6310,0.3690	-2649.90
0.6288,0.3712	-2648.83
0.5534,0.4466	-2650.00
0.5935,0.4065	-2650.42
0.5981,0.4019	-2648.48
0.6640,0.3360	-2649.71
0.6230,0.3770	-2652.84
0.6462,0.3538	-2648.89
0.6402,0.3598	-2648.28
0.5489,0.4511	-2650.81
0.5889,0.4111	-2649.66
0.6869,0.3131	-2649.30
0.6208,0.3792	-2648.82
0.6608,0.3392	-2651.66
0.5904,0.4096	-2649.66
0.4964,0.5036	-2650.65
0.5831,0.4169	-2650.33
0.6587,0.3413	-2647.00
0.6948,0.3052	-2649.43
0.6905,0.3095	-2649.36
0.6156,0.3844	-2652.59
0.5136,0.4864	-2650.43
0.5679,0.4321	-2650.24
0.6351,0.3649	-2651.61
0.7041,0.2959	-2651.33
0.6880,0.3120	-2649.32
0.6336,0.3664	-2648.84
0.5562,0.4438	-2650.89
0.5824,0.4176	-2649.33
0.5634,0.4366	-2649.72
0.7245,0.2755	-2650.99
0.7185,0.2815	-2646.14
0.6280,0.3720	-2649.87
0.5845,0.4155	-2650.00
0.5733,0.4267	-2651.45
0.5278,0.4722	-2650.52
0.7247,0.2753	-2649.06
0.6619,0.3381	-2644.30
0.6001,0.3999	-2648.87
0.5461,0.4539	-2649.48
0.5693,0.4307	-2651.92
0.5190,0.4810	-2650.37
0.6753,0.3247	-2652.07
0.6726,0.3274	-2649.12
0.5824,0.4176	-2649.66
0.5100,0.4900	-2650.63
0.5543,0.4457	-2648.47
0.4803,0.5197	-2650.57
0.6692,0.3308	-2649.78
0.6776,0.3224	-2646.20
0.5840,0.4160	-2651.01
0.4973,0.5027	-2650.58
0.5128,0.4872	-2651.00
0.5091,0.4909	-2650.70
0.6792,0.3208	-2644.69
0.6870,0.3130	-2650.09
0.5705,0.4295	-2651.11
0.4969,0.5031	-2650.65
0.4940,0.5060	-2650.63
0.4747,0.5253	-2650.89
0.6483,0.3517	-2647.68
0.7227,0.2773	-2649.98
0.6506,0.3494	-2650.78
0.4909,0.5091	-2650.54
0.5156,0.4844	-2650.41
0.5186,0.4814	-2650.75
0.6285,0.3715	-2651.98
0.6889,0.3111	-2646.95
0.6135,0.3865	-2650.21
0.5082,0.4918	-2650.49
0.4695,0.5305	-2650.85
0.5032,0.4968	-2650.48
0.6611,0.3389	-2649.67
0.6810,0.3190	-2648.46
0.5969,0.4031	-2650.07
0.4547,0.5453	-2650.54
0.5198,0.4802	-2650.52
0.5267,0.4733	-2650.63
0.6141,0.3859	-2649.76
0.7102,0.2898	-2648.81
0.5428,0.4572	-2650.06
0.4464,0.5536	-2650.39
0.5752,0.4248	-2651.79
0.5083,0.4917	-2650.62
0.6362,0.3638	-2647.17
0.7478,0.2522	-2648.48
0.5651,0.4349	-2649.97
0.3870,0.6130	-2651.94
0.5572,0.4428	-2650.68
0.5484,0.4516	-2650.22
0.6909,0.3091	-2650.97
0.7915,0.2085	-2645.59
0.6224,0.3776	-2649.82
0.4044,0.5956	-2650.61
0.5840,0.4160	-2649.66
0.5185,0.4815	-2650.53
0.7208,0.2792	-2648.99
0.7380,0.2620	-2650.37
0.5604,0.4396	-2649.98
0.3563,0.6437	-2654.52
0.5326,0.4674	-2650.40
0.5122,0.4878	-2650.69
0.7361,0.2639	-2644.16
0.7697,0.2303	-2645.35
0.5047,0.4953	-2650.67
0.3657,0.6343	-2648.99
0.5300,0.4700	-2650.17
0.4858,0.5142	-2650.91
0.7399,0.2601	-2643.11
0.7530,0.2470	-2648.58
0.5379,0.4621	-2650.85
0.3877,0.6123	-2651.91
0.5656,0.4344	-2649.44
0.5190,0.4810	-2650.07
0.7814,0.2186	-2642.91
0.7465,0.2535	-2646.29
0.5119,0.4881	-2650.73
0.3540,0.6460	-2653.47
0.5578,0.4422	-2650.22
0.5333,0.4667	-2651.33
0.7766,0.2234	-2646.66
0.6713,0.3287	-2647.67
0.4635,0.5365	-2650.35
0.3817,0.6183	-2649.25
0.5517,0.4483	-2649.59
0.4686,0.5314	-2650.36
0.7709,0.2291	-2644.14
0.6817,0.3183	-2648.47
0.5092,0.4908	-2650.22
0.4005,0.5995	-2654.31
0.5381,0.4619	-2649.63
0.4901,0.5099	-2650.69
0.7619,0.2381	-2647.62
0.7140,0.2860	-2651.62
0.5091,0.4909	-2650.74
0.3689,0.6311	-2651.62
0.5252,0.4748	-2650.32
0.4864,0.5136	-2650.84
0.7201,0.2799	-2648.98
0.6261,0.3739	-2649.85
0.4715,0.5285	-2650.94
0.3808,0.6192	-2649.26
0.5046,0.4954	-2650.63
0.5135,0.4865	-2650.43
0.6925,0.3075	-2647.77
0.6139,0.3861	-2649.29
0.4300,0.5700	-2651.38
0.4324,0.5676	-2653.50
0.4796,0.5204	-2651.14
0.4866,0.5134	-2650.52
0.6750,0.3250	-2648.41
0.6186,0.3814	-2648.82
0.4702,0.5298	-2650.96
0.4438,0.5562	-2651.31
0.4515,0.5485	-2650.76
0.4454,0.5546	-2651.28
0.7108,0.2892	-2645.23
0.6121,0.3879	-2647.46
0.4736,0.5264	-2650.48
0.4945,0.5055	-2650.63
0.4865,0.5135	-2650.57
0.4181,0.5819	-2652.03
0.7239,0.2761	-2645.19
0.5639,0.4361	-2648.95
0.4321,0.5679	-2650.51
0.5415,0.4585	-2649.73
0.4857,0.5143	-2651.14
0.4100,0.5900	-2651.96
0.7327,0.2673	-2644.18
0.6166,0.3834	-2648.82
0.4741,0.5259	-2651.42
0.5552,0.4448	-2649.99
0.5492,0.4508	-2649.82
0.3671,0.6329	-2651.15
0.7405,0.2595	-2643.10
0.6203,0.3797	-2650.29
0.4928,0.5072	-2650.67
0.5444,0.4556	-2650.58
0.5789,0.4211	-2648.39
0.3646,0.6354	-2650.13
0.7502,0.2498	-2648.53
0.5581,0.4419	-2649.75
0.4932,0.5068	-2650.58
0.5007,0.4993	-2650.61
0.6325,0.3675	-2649.92
0.3661,0.6339	-2651.73
0.7436,0.2564	-2649.46
0.5039,0.4961	-2650.64
0.4695,0.5305	-2650.49
0.4563,0.5437	-2650.53
0.6442,0.3558	-2651.85
0.3898,0.6102	-2651.84
0.7220,0.2780	-2647.10
0.5255,0.4745	-2650.42
0.4699,0.5301	-2650.36
0.4693,0.5307	-2650.49
0.6568,0.3432	-2647.66
0.3695,0.6305	-2653.20
0.6926,0.3074	-2646.95
0.5671,0.4329	-2648.62
0.4961,0.5039	-2650.57
0.4683,0.5317	-2650.11
0.6296,0.3704	-2649.36
0.3707,0.6293	-2652.61
0.7305,0.2695	-2646.19
0.5834,0.4166	-2650.33
0.4425,0.5575	-2651.11
0.5158,0.4842	-2651.10
0.5620,0.4380	-2648.73
0.4687,0.5313	-2651.11
0.7325,0.2675	-2650.22
0.5780,0.4220	-2649.35
0.3992,0.6008	-2650.71
0.4901,0.5099	-2650.73
0.5444,0.4556	-2651.12
0.4988,0.5012	-2650.61
0.7633,0.2367	-2647.64
0.6006,0.3994	-2650.50
0.5367,0.4633	-2650.99
0.5149,0.4851	-2650.53
0.5315,0.4685	-2650.78
0.5373,0.4627	-2649.35
0.7886,0.2114	-2644.23
0.6136,0.3864	-2649.75
0.6126,0.3874	-2648.83
0.5228,0.4772	-2650.52
0.5380,0.4620	-2650.40
0.5334,0.4666	-2650.40
0.7591,0.2409	-2655.60
0.5592,0.4408	-2649.98
0.6973,0.3027	-2646.13
0.5735,0.4265	-2649.68
0.5149,0.4851	-2650.30
0.4925,0.5075	-2650.55
0.7462,0.2538	-2645.21
0.4930,0.5070	-2650.69
0.7438,0.2562	-2647.34
0.5638,0.4362	-2650.74
0.5685,0.4315	-2651.35
0.5159,0.4841	-2650.53
0.7681,0.2319	-2640.54
0.4676,0.5324	-2651.01
0.6917,0.3083	-2649.38
0.5680,0.4320	-2649.97
0.6279,0.3721	-2653.01
0.5676,0.4324	-2649.97
0.7725,0.2275	-2647.82
0.4971,0.5029	-2650.68
0.6754,0.3246	-2649.88
0.5351,0.4649	-2650.68
0.6399,0.3601	-2648.28
0.6045,0.3955	-2648.85
0.7959,0.2041	-2645.65
0.4755,0.5245	-2650.68
0.6385,0.3615	-2650.56
0.5333,0.4667	-2650.80
0.6259,0.3741	-2651.40
0.6321,0.3679	-2652.08
0.7761,0.2239	-2639.19
0.4361,0.5639	-2649.96
0.6382,0.3618	-2647.72
0.5086,0.4914	-2650.39
0.6262,0.3738	-2648.31
0.6335,0.3665	-2650.48
0.7678,0.2322	-2646.53
0.4502,0.5498	-2651.37
0.5749,0.4251	-2650.88
0.5390,0.4610	-2649.62
0.6374,0.3626	-2648.29
0.6412,0.3588	-2647.12
0.7836,0.2164	-2641.63
0.4762,0.5238	-2651.25
0.5476,0.4524	-2649.26
0.5859,0.4141	-2649.31
0.6675,0.3325	-2647.67
0.5998,0.4002	-2648.06
0.7922,0.2078	-2644.26
0.4967,0.5033	-2650.66
0.4960,0.5040	-2650.72
0.6237,0.3763	-2652.86
0.6901,0.3099	-2648.55
0.5990,0.4010	-2649.68
0.7775,0.2225	-2645.42
0.4923,0.5077	-2650.52
0.4832,0.5168	-2651.31
0.6264,0.3736	-2651.41
0.7035,0.2965	-2647.85
0.5882,0.4118	-2651.09
0.8183,0.1817	-2644.54
0.4503,0.5497	-2649.98
0.4869,0.5131	-2650.83
0.5966,0.4034	-2650.06
0.6791,0.3209	-2649.94
0.5578,0.4422	-2650.22
0.8319,0.1681	-2643.17
0.5056,0.4944	-2650.59
0.5131,0.4869	-2650.38
0.5848,0.4152	-2650.34
0.7000,0.3000	-2650.36
0.5091,0.4909	-2650.52
0.8119,0.1881	-2645.92
0.5363,0.4637	-2649.96
0.5451,0.4549	-2649.32
0.5416,0.4584	-2650.57
0.6939,0.3061	-2646.96
0.5343,0.4657	-2650.40
0.8176,0.1824	-2647.53
0.5345,0.4655	-2650.68
0.5647,0.4353	-2649.97
0.4651,0.5349	-2651.19
0.6752,0.3248	-2648.41
0.5651,0.4349	-2650.76
0.8541,0.1459	-2648.79
0.5736,0.4264	-2649.08
0.4939,0.5061	-2650.58
0.4445,0.5555	-2651.52
0.6448,0.3552	-2651.27
0.6084,0.3916	-2652.81
0.8191,0.1809	-2638.51
0.5964,0.4036	-2647.72
0.4978,0.5022	-2650.63
0.4561,0.5439	-2651.06
0.6437,0.3563	-2648.29
0.6057,0.3943	-2650.57
0.7921,0.2079	-2646.93
0.5729,0.4271	-2649.68
0.5081,0.4919	-2650.46
0.4801,0.5199	-2650.25
0.6523,0.3477	-2648.93
0.5941,0.4059	-2650.05
0.7230,0.2770	-2644.23
0.5237,0.4763	-2650.90
0.4790,0.5210	-2650.49
0.4497,0.5503	-2650.17
0.6183,0.3817	-2649.79
0.5571,0.4429	-2649.07
0.7667,0.2333	-2650.08
0.4696,0.5304	-2650.00
0.4581,0.5419	-2650.35
0.5320,0.4680	-2650.66
0.5582,0.4418	-2650.22
0.5872,0.4128	-2650.72
0.7770,0.2230	-2640.42
0.4585,0.5415	-2650.85
0.5017,0.4983	-2650.57
0.5399,0.4601	-2650.88
0.5672,0.4328	-2651.32
0.5588,0.4412	-2650.69
0.7769,0.2231	-2649.16
0.3491,0.6509	-2653.13
0.5239,0.4761	-2650.33
0.4791,0.5209	-2650.57
0.5871,0.4129	-2650.72
0.5877,0.4123	-2652.50
0.7440,0.2560	-2648.41
0.3636,0.6364	-2651.27
0.5492,0.4508	-2650.81
0.5038,0.4962	-2650.64
0.5676,0.4324	-2649.43
0.5295,0.4705	-2651.00
0.6947,0.3053	-2645.31
0.3870,0.6130	-2651.48
0.5803,0.4197	-2648.37
0.4812,0.5188	-2650.95
0.5430,0.4570	-2650.92
0.5039,0.4961	-2650.63
0.6728,0.3272	-2646.95
0.3646,0.6354	-2652.90
0.5921,0.4079	-2650.41
0.4985,0.5015	-2650.59
0.4839,0.5161	-2650.44
0.4903,0.5097	-2650.69
0.6804,0.3196	-2647.70
0.4114,0.5886	-2651.91
0.5815,0.4185	-2649.99
0.4781,0.5219	-2650.75
0.4335,0.5665	-2651.30
0.4351,0.5649	-2651.00
0.6722,0.3278	-2649.83
0.4775,0.5225	-2650.49
0.5561,0.4439	-2649.99
0.4096,0.5904	-2650.51
0.4465,0.5535	-2649.10
0.4442,0.5558	-2650.63
0.6892,0.3108	-2650.13
0.5005,0.4995	-2650.60
0.5150,0.4850	-2650.29
0.4475,0.5525	-2651.02
0.4330,0.5670	-2651.85
0.4524,0.5476	-2650.94
0.7640,0.2360	-2641.78
0.5029,0.4971	-2650.56
0.4728,0.5272	-2651.14
0.4657,0.5343	-2650.91
0.4305,0.5695	-2651.93
0.5047,0.4953	-2650.54
0.7590,0.2410	-2648.71
0.4705,0.5295	-2650.37
0.4997,0.5003	-2650.60
0.4383,0.5617	-2650.45
0.3883,0.6117	-2653.25
0.4910,0.5090	-2650.72
0.7221,0.2779	-2652.83
0.4778,0.5222	-2650.04
0.4969,0.5031	-2650.59
0.4456,0.5544	-2651.05
0.3954,0.6046	-2649.95
0.4997,0.5003	-2650.60
0.7401,0.2599	-2647.29
0.4915,0.5085	-2650.54
0.5297,0.4703	-2650.29
0.4587,0.5413	-2651.18
0.3986,0.6014	-2650.73
0.5218,0.4782	-2650.79
0.7725,0.2275	-2649.04
0.5558,0.4442	-2650.44
0.4941,0.5059	-2650.51
0.5006,0.4994	-2650.61
0.3759,0.6241	-2652.88
0.5007,0.4993	-2650.60
0.7922,0.2078	-2648.27
0.5827,0.4173	-2649.66
0.4462,0.5538	-2650.61
0.4991,0.5009	-2650.60
0.3490,0.6510	-2653.76
0.4761,0.5239	-2650.68
0.7528,0.2472	-2650.81
0.5635,0.4365	-2649.72
0.4257,0.5743	-2650.59
0.5177,0.4823	-2650.60
0.3296,0.6704	-2655.78
0.4996,0.5004	-2650.61
0.7557,0.2443	-2645.25
0.5426,0.4574	-2650.40
0.4489,0.5511	-2650.18
0.4618,0.5382	-2650.35
0.3530,0.6470	-2649.89
0.4809,0.5191	-2650.57
0.7334,0.2666	-2649.24
0.5449,0.4551	-2649.86
0.4536,0.5464	-2649.99
0.4551,0.5449	-2651.26
0.3975,0.6025	-2649.92
0.5577,0.4423	-2651.15
0.7269,0.2731	-2648.13
0.6095,0.3905	-2650.62
0.3964,0.6036	-2651.20
0.4451,0.5549	-2650.40
0.3829,0.6171	-2652.09
0.5708,0.4292	-2650.25
0.7019,0.2981	-2649.55
0.5505,0.4495	-2649.61
0.4105,0.5895	-2651.58
0.4897,0.5103	-2650.78
0.3965,0.6035	-2650.35
0.5207,0.4793	-2650.77
0.7408,0.2592	-2645.20
0.5298,0.4702	-2650.17
0.4794,0.5206	-2650.66
0.5199,0.4801	-2650.52
0.3644,0.6356	-2650.13
0.4627,0.5373	-2650.35
0.7658,0.2342	-2645.32
0.5301,0.4699	-2650.04
0.5128,0.4872	-2650.33
0.4584,0.5416	-2651.19
0.3629,0.6371	-2651.30
0.4314,0.5686	-2649.14
0.7745,0.2255	-2642.92
0.5260,0.4740	-2650.31
0.5497,0.4503	-2650.22
0.5076,0.4924	-2650.47
0.3243,0.6757	-2656.21
0.4414,0.5586	-2651.37
0.8247,0.1753	-2644.64
0.5290,0.4710	-2650.41
0.5511,0.4489	-2648.78
0.5002,0.4998	-2650.60
0.3265,0.6735	-2655.30
0.4809,0.5191	-2650.72
0.8149,0.1851	-2638.57
0.4845,0.5155	-2650.69
0.5965,0.4035	-2648.11
0.4847,0.5153	-2650.26
0.3303,0.6697	-2652.89
0.5290,0.4710	-2650.18
0.7846,0.2154	-2650.67
0.4628,0.5372	-2650.95
0.5679,0.4321	-2649.70
0.4674,0.5326	-2650.36
0.3383,0.6617	-2651.09
0.5660,0.4340	-2649.71
0.7887,0.2113	-2645.55
0.5522,0.4478	-2650.63
0.5242,0.4758	-2650.52
0.4540,0.5460	-2651.10
0.3739,0.6261	-2653.50
0.5169,0.4831	-2650.12
0.8067,0.1933	-2641.54
0.5306,0.4694	-2651.02
0.5371,0.4629	-2649.95
0.4199,0.5801	-2651.65
0.4123,0.5877	-2650.82
0.5770,0.4230	-2649.36
0.8170,0.1830	-2643.03
0.5448,0.4552	-2650.94
0.5518,0.4482	-2651.25
0.4182,0.5818	-2650.38
0.4061,0.5939	-2652.85
0.5667,0.4333	-2650.24
0.8288,0.1712	-2644.71
0.5426,0.4574	-2650.40
0.5445,0.4555	-2650.58
0.4104,0.5896	-2650.13
0.4348,0.5652	-2649.17
0.5281,0.4719	-2650.19
0.8340,0.1660	-2648.03
0.4806,0.5194	-2650.73
0.5705,0.4295	-2649.12
0.3789,0.6211	-2652.25
0.5035,0.4965	-2650.57
0.5225,0.4775	-2650.43
0.8077,0.1923	-2641.54
0.4589,0.5411	-2651.51
0.6240,0.3760	-2650.34
0.3872,0.6128	-2649.63
0.5409,0.4591	-2650.07
0.5093,0.4907	-2650.55
0.8270,0.1730	-2649.37
0.4917,0.5083	-2650.61
0.5882,0.4118	-2650.37
0.3709,0.6291	-2651.02
0.5022,0.4978	-2650.61
0.5086,0.4914	-2650.63
0.8271,0.1729	-2644.68
0.4966,0.5034	-2650.65
0.5847,0.4153	-2648.97
0.4001,0.5999	-2650.29
0.5113,0.4887	-2650.73
0.5069,0.4931	-2650.51
0.8410,0.1590	-2641.61
0.5067,0.4933	-2650.65
0.5783,0.4217	-2650.61
0.4675,0.5325	-2651.14
0.5398,0.4602	-2650.56
0.5398,0.4602	-2650.24
0.7986,0.2014	-2645.69
0.4995,0.5005	-2650.61
0.5575,0.4425	-2650.45
0.4468,0.5532	-2650.82
0.5996,0.4004	-2650.09
0.5369,0.4631	-2650.25
0.7808,0.2192	-2650.54
0.5744,0.4256	-2651.77
0.5433,0.4567	-2650.40
0.4648,0.5352	-2651.06
0.5584,0.4416	-2650.69
0.5015,0.4985	-2650.60
0.7798,0.2202	-2651.77
0.5425,0.4575	-2650.23
0.5715,0.4285	-2649.39
0.4791,0.5209	-2650.49
0.5222,0.4778	-2650.34
0.5151,0.4849	-2650.41
0.7696,0.2304	-2646.55
0.4952,0.5048	-2650.64
0.5667,0.4333	-2649.70
0.4772,0.5228	-2651.22
0.4394,0.5606	-2650.93
0.5614,0.4386	-2649.48
0.7124,0.2876	-2647.94
0.4885,0.5115	-2650.76
0.5440,0.4560	-2650.58
0.4162,0.5838	-2650.07
0.4417,0.5583	-2650.42
0.5885,0.4115	-2650.38
0.7010,0.2990	-2644.42
0.4839,0.5161	-2650.89
0.5158,0.4842	-2650.34
0.4535,0.5465	-2651.11
0.4525,0.5475	-2650.56
0.6279,0.3721	-2648.83
0.7478,0.2522	-2647.39
0.4772,0.5228	-2650.40
0.4721,0.5279	-2651.27
0.4385,0.5615	-2650.20
0.4653,0.5347	-2651.05
0.5986,0.4014	-2649.28
0.7793,0.2207	-2645.44
0.5341,0.4659	-2650.40
0.4969,0.5031	-2650.57
0.4641,0.5359	-2651.65
0.4661,0.5339	-2650.90
0.5963,0.4037	-2649.67
0.7711,0.2289	-2645.36
0.5579,0.4421	-2650.92
0.4661,0.5339	-2651.31
0.4517,0.5483	-2651.73
0.4954,0.5046	-2650.64
0.5652,0.4348	-2650.50
0.7336,0.2664	-2642.15
0.5791,0.4209	-2649.34
0.5232,0.4768	-2650.62
0.5137,0.4863	-2650.54
0.5348,0.4652	-2650.82
0.5804,0.4196	-2651.61
0.7273,0.2727	-2642.25
0.5393,0.4607	-2650.08
0.5198,0.4802	-2650.52
0.5592,0.4408	-2651.17
0.5694,0.4306	-2649.97
0.5237,0.4763	-2650.43
0.6992,0.3008	-2646.13
0.5399,0.4601	-2651.04
0.5628,0.4372	-2649.72
0.5439,0.4561	-2650.76
0.6245,0.3755	-2652.38
0.5014,0.4986	-2650.59
0.7258,0.2742	-2650.06
0.4957,0.5043	-2650.57
0.5840,0.4160	-2651.69
0.5868,0.4132	-2650.36
0.5815,0.4185	-2650.65
0.4598,0.5402	-2651.64
0.6763,0.3237	-2648.42
0.5279,0.4721	-2650.64
0.5729,0.4271	-2650.56
0.5971,0.4029	-2652.04
0.5341,0.4659	-2650.54
0.5209,0.4791	-2649.77
0.6801,0.3199	-2646.94
0.5251,0.4749	-2650.42
0.5661,0.4339	-2649.17
0.6175,0.3825	-2648.82
0.5154,0.4846	-2650.47
0.5738,0.4262	-2649.38
0.6336,0.3664	-2648.84
0.4936,0.5064	-2650.58
0.5423,0.4577	-2651.08
0.6619,0.3381	-2649.01
0.5157,0.4843	-2650.72
0.5411,0.4589	-2650.40
0.6983,0.3017	-2647.81
0.4329,0.5671	-2650.50
0.5358,0.4642	-2650.69
0.6855,0.3145	-2649.28
0.5039,0.4961	-2650.55
0.4331,0.5669	-2650.50
0.6561,0.3439	-2651.54
0.4257,0.5743	-2651.19
0.4902,0.5098	-2650.65
0.7125,0.2875	-2647.03
0.4660,0.5340	-2650.22
0.4731,0.5269	-2650.70
0.6320,0.3680	-2651.00
0.4158,0.5842	-2651.09
0.5119,0.4881	-2650.54
0.7559,0.2441	-2646.38
0.5305,0.4695	-2650.28
0.4645,0.5355	-2650.92
0.5636,0.4364	-2650.23
0.4077,0.5923	-2651.29
0.4807,0.5193	-2650.88
0.7232,0.2768	-2647.11
0.5436,0.4564	-2651.10
0.4613,0.5387	-2650.97
0.5465,0.4535	-2651.53
0.4718,0.5282	-2650.60
0.5441,0.4559	-2650.23
0.7249,0.2751	-2647.13
0.5412,0.4588	-2650.23
0.4470,0.5530	-2650.39
0.5165,0.4835	-2650.33
0.4866,0.5134	-2650.68
0.5273,0.4727	-2650.09
0.7269,0.2731	-2651.06
0.4708,0.5292	-2650.60
0.4518,0.5482	-2651.34
0.5451,0.4549	-2651.13
0.4699,0.5301	-2650.61
0.6392,0.3608	-2648.86
0.7323,0.2677	-2645.19
0.4501,0.5499	-2650.17
0.4215,0.5785	-2651.92
0.5770,0.4230	-2650.60
0.4831,0.5169	-2650.77
0.5930,0.4070	-2648.91
0.7040,0.2960	-2649.59
0.4468,0.5532	-2650.60
0.4175,0.5825	-2652.39
0.5729,0.4271	-2650.85
0.4732,0.5268	-2650.59
0.5403,0.4597	-2650.72
0.6744,0.3256	-2648.41
0.4870,0.5130	-2650.67
0.4725,0.5275	-2650.59
0.6259,0.3741	-2648.82
0.4643,0.5357	-2651.64
0.5427,0.4573	-2649.89
0.6103,0.3897	-2647.49
0.5327,0.4673	-2650.40
0.4474,0.5526	-2651.23
0.5608,0.4392	-2650.71
0.5146,0.4854	-2650.59
0.5672,0.4328	-2649.97
0.5945,0.4055	-2649.29
0.4675,0.5325	-2650.49
0.4394,0.5606	-2650.68
0.5518,0.4482	-2650.01
0.5253,0.4747	-2650.62
0.5730,0.4270	-2652.03
0.5527,0.4473	-2650.21
0.4641,0.5359	-2650.78
0.4795,0.5205	-2650.66
0.5430,0.4570	-2650.57
0.4971,0.5029	-2650.62
0.5909,0.4091	-2650.76
0.5313,0.4687	-2650.15
0.4737,0.5263	-2650.48
0.4647,0.5353	-2651.06
0.4956,0.5044	-2650.69
0.5129,0.4871	-2650.49
0.5566,0.4434	-2650.22
0.5362,0.4638	-2650.40
0.4948,0.5052	-2650.65
0.4675,0.5325	-2650.62
0.5169,0.4831	-2650.26
0.5441,0.4559	-2650.93
0.5868,0.4132	-2650.71
0.4988,0.5012	-2650.61
0.4635,0.5365	-2650.94
0.4345,0.5655	-2651.54
0.5489,0.4511	-2650.61
0.5290,0.4710	-2650.53
0.6213,0.3787	-2648.82
0.5270,0.4730	-2650.31
0.5025,0.4975	-2650.55
0.4378,0.5622	-2650.21
0.5440,0.4560	-2650.23
0.5311,0.4689	-2650.78
0.6812,0.3188	-2649.98
0.5340,0.4660	-2650.26
0.5156,0.4844	-2650.66
0.4379,0.5621	-2650.95
0.5785,0.4215	-2649.35
0.5463,0.4537	-2650.04
0.6445,0.3555	-2648.88
0.5048,0.4952	-2650.56
0.4940,0.5060	-2650.61
0.4922,0.5078	-2650.55
0.5765,0.4235	-2650.59
0.5526,0.4474	-2650.64
0.6730,0.3270	-2652.73
0.5309,0.4691	-2650.78
0.4612,0.5388	-2651.75
0.5207,0.4793	-2650.61
0.5880,0.4120	-2650.73
0.5838,0.4162	-2650.00
0.6691,0.3309	-2652.60
0.5086,0.4914	-2650.63
0.4425,0.5575	-2650.88
0.5109,0.4891	-2650.24
0.5996,0.4004	-2649.68
0.6086,0.3914	-2648.84
0.6142,0.3858	-2652.08
0.5960,0.4040	-2650.06
0.4678,0.5322	-2651.13
0.5448,0.4552	-2649.51
0.6481,0.3519	-2648.29
0.6061,0.3939	-2653.16
0.6281,0.3719	-2650.40
0.6370,0.3630	-2649.97
0.4772,0.5228	-2650.30
0.6085,0.3915	-2648.84
0.6554,0.3446	-2648.95
0.5686,0.4314	-2650.25
0.6250,0.3750	-2649.84
0.6719,0.3281	-2653.41
0.5025,0.4975	-2650.61
0.6451,0.3549	-2651.87
0.6449,0.3551	-2648.88
0.5616,0.4384	-2649.73
0.6087,0.3913	-2649.28
0.6977,0.3023	-2649.48
0.5338,0.4662	-2650.81
0.6316,0.3684	-2646.14
0.6529,0.3471	-2650.83
0.5855,0.4145	-2648.97
0.5460,0.4540	-2650.59
0.6776,0.3224	-2646.95
0.5208,0.4792	-2650.61
0.6011,0.3989	-2648.05
0.6254,0.3746	-2648.31
0.5912,0.4088	-2651.88
0.4969,0.5031	-2650.61
0.6541,0.3459	-2648.30
0.5097,0.4903	-2650.55
0.5753,0.4247	-2650.28
0.5825,0.4175	-2650.66
0.6192,0.3808	-2650.28
0.5565,0.4435	-2651.35
0.6445,0.3555	-2650.66
0.5607,0.4393	-2651.44
0.5821,0.4179	-2652.31
0.6151,0.3849	-2650.23
0.6006,0.3994	-2649.28
0.5200,0.4800	-2650.60
0.6731,0.3269	-2648.40
0.5603,0.4397	-2650.95
0.5810,0.4190	-2649.66
0.5995,0.4005	-2650.09
0.6295,0.3705	-2650.95
0.5212,0.4788	-2650.86
0.6772,0.3228	-2649.17
0.6017,0.3983	-2651.75
0.5251,0.4749	-2650.12
0.5883,0.4117	-2648.59
0.6417,0.3583	-2649.45
0.5236,0.4764	-2650.71
0.6427,0.3573	-2648.28
0.5941,0.4059	-2650.81
0.5295,0.4705	-2650.53
0.5600,0.4400	-2648.77
0.6328,0.3672	-2652.64
0.4718,0.5282	-2650.26
0.5536,0.4464	-2651.29
0.6177,0.3823	-2651.22
0.5374,0.4626	-2650.70
0.5202,0.4798	-2650.44
0.5965,0.4035	-2650.85
0.4863,0.5137	-2650.41
0.5663,0.4337	-2651.30
0.6389,0.3611	-2651.71
0.5520,0.4480	-2650.84
0.4910,0.5090	-2650.75
0.6159,0.3841	-2651.66
0.5195,0.4805	-2650.76
0.5361,0.4639	-2649.82
0.5898,0.4102	-2650.75
0.5586,0.4414	-2650.45
0.4663,0.5337	-2650.36
0.6092,0.3908	-2649.28
0.4551,0.5449	-2650.72
0.5397,0.4603	-2650.40
0.6352,0.3648	-2648.29
0.5982,0.4018	-2650.87
0.4720,0.5280	-2650.93
0.5937,0.4063	-2647.01
0.4260,0.5740	-2651.19
0.5927,0.4073	-2650.04
0.6333,0.3667	-2647.74
0.6078,0.3922	-2651.03
0.4687,0.5313	-2650.49
0.5675,0.4325	-2649.97
0.4760,0.5240	-2650.87
0.5547,0.4453	-2650.22
0.6351,0.3649	-2647.18
0.5726,0.4274	-2650.85
0.4943,0.5057	-2650.54
0.5163,0.4837	-2650.73
0.5349,0.4651	-2650.54
0.5661,0.4339	-2649.44
0.6747,0.3253	-2649.14
0.5649,0.4351	-2650.76
0.5174,0.4826	-2650.46
0.5543,0.4457	-2650.65
0.5436,0.4564	-2650.93
0.5533,0.4467	-2650.64
0.6956,0.3044	-2642.83
0.4974,0.5026	-2650.58
0.5513,0.4487	-2650.01
0.5483,0.4517	-2650.99
0.5485,0.4515	-2650.22
0.4839,0.5161	-2650.63
0.6799,0.3201	-2649.20
0.4554,0.5446	-2651.25
0.5343,0.4657	-2650.54
0.5368,0.4632	-2651.43
0.5373,0.4627	-2650.10
0.5406,0.4594	-2649.75
0.6036,0.3964	-2648.44
0.3958,0.6042	-2650.37
0.5193,0.4807	-2650.22
0.5327,0.4673	-2650.53
0.4987,0.5013	-2650.62
0.5873,0.4127	-2649.31
0.6135,0.3865	-2647.44
0.3927,0.6073	-2653.05
0.5456,0.4544	-2650.41
0.5470,0.4530	-2650.22
0.4412,0.5588	-2651.37
0.5693,0.4307	-2650.53
0.5911,0.4089	-2649.66
0.3976,0.6024	-2649.50
0.4813,0.5187	-2650.80
0.5940,0.4060	-2649.67
0.4561,0.5439	-2650.71
0.5625,0.4375	-2650.98
0.5691,0.4309	-2650.80
0.3906,0.6094	-2651.36
0.5131,0.4869	-2650.28
0.5778,0.4222	-2648.72
0.5468,0.4532	-2649.84
0.5733,0.4267	-2650.56
0.4760,0.5240	-2650.87
0.3665,0.6335	-2649.53
0.5010,0.4990	-2650.62
0.5735,0.4265	-2650.86
0.5587,0.4413	-2649.51
0.5486,0.4514	-2650.22
0.5036,0.4964	-2650.57
0.3620,0.6380	-2652.47
0.4661,0.5339	-2650.90
0.5476,0.4524	-2650.03
0.5701,0.4299	-2650.53
0.4996,0.5004	-2650.62
0.4470,0.5530	-2650.39
0.3836,0.6164	-2652.54
0.5242,0.4758	-2650.33
0.5555,0.4445	-2651.33
0.5858,0.4142	-2650.01
0.4736,0.5264	-2650.80
0.3868,0.6132	-2654.71
0.4396,0.5604	-2650.93
0.4772,0.5228	-2650.94
0.4967,0.5033	-2650.57
0.4925,0.5075	-2650.58
0.4858,0.5142	-2651.02
0.4171,0.5829	-2650.40
0.4888,0.5112	-2650.71
0.4804,0.5196	-2650.49
0.4857,0.5143	-2650.63
0.4488,0.5512	-2649.76
0.5179,0.4821	-2650.31
0.4308,0.5692	-2651.92
0.5103,0.4897	-2650.71
0.5475,0.4525	-2650.41
0.4929,0.5071	-2650.69
0.4866,0.5134	-2650.84
0.5390,0.4610	-2649.62
0.4386,0.5614	-2649.46
0.5427,0.4573	-2650.74
0.5090,0.4910	-2650.48
0.4288,0.5712	-2650.27
0.5271,0.4729	-2650.31
0.5367,0.4633	-2649.52
0.4415,0.5585	-2650.19
0.5897,0.4103	-2650.39
0.5487,0.4513	-2650.22
0.3821,0.6179	-2649.24
0.4690,0.5310	-2650.86
0.4673,0.5327	-2650.88
0.4615,0.5385	-2650.20
0.6027,0.3973	-2648.44
0.5330,0.4670	-2651.06
0.4265,0.5735	-2651.47
0.5454,0.4546	-2650.41
0.4962,0.5038	-2650.67
0.4961,0.5039	-2650.59
0.5840,0.4160	-2648.64
0.4756,0.5244	-2650.39
0.4339,0.5661	-2648.90
0.5298,0.4702	-2650.53
0.4712,0.5288	-2650.95
0.4957,0.5043	-2650.64
0.5879,0.4121	-2650.72
0.5238,0.4762	-2650.90
0.4384,0.5616	-2651.69
0.5508,0.4492	-2650.22
0.4830,0.5170	-2650.84
0.4615,0.5385	-2650.66
0.5454,0.4546	-2650.59
0.5570,0.4430	-2650.22
0.4386,0.5614	-2650.45
0.5086,0.4914	-2650.63
0.4728,0.5272	-2651.14
0.4906,0.5094	-2650.54
0.5188,0.4812	-2650.30
0.4728,0.5272	-2650.59
0.4409,0.5591	-2651.14
0.4868,0.5132	-2650.78
0.5065,0.4935	-2650.62
0.5172,0.4828	-2650.67
0.5424,0.4576	-2649.89
0.4411,0.5589	-2650.90
0.4447,0.5553	-2650.63
0.4682,0.5318	-2651.25
0.4974,0.5026	-2650.63
0.5473,0.4527	-2650.22
0.5684,0.4316	-2651.90
0.4659,0.5341	-2650.90
0.4732,0.5268	-2650.91
0.4652,0.5348	-2651.19
0.5514,0.4486	-2650.63
0.6217,0.3783	-2649.32
0.5661,0.4339	-2650.24
0.4859,0.5141	-2650.68
0.4802,0.5198	-2650.49
0.4247,0.5753	-2650.30
0.5321,0.4679	-2650.02
0.6122,0.3878	-2651.57
0.6164,0.3836	-2649.30
0.4764,0.5236	-2650.96
0.4109,0.5891	-2651.93
0.4343,0.5657	-2651.81
0.5386,0.4614	-2650.55
0.5895,0.4105	-2650.38
0.5895,0.4105	-2650.02
0.5632,0.4368	-2649.21
0.4388,0.5612	-2650.20
0.4361,0.5639	-2650.99
0.4936,0.5064	-2650.63
0.6409,0.3591	-2652.34
0.5937,0.4063	-2649.67
0.5746,0.4254	-2649.97
0.3998,0.6002	-2650.29
0.4637,0.5363	-2650.50
0.5127,0.4873	-2650.34
0.6175,0.3825	-2649.30
0.6173,0.3827	-2647.39
0.4636,0.5364	-2650.35
0.4074,0.5926	-2650.92
0.4765,0.5235	-2650.86
0.5041,0.4959	-2650.65
0.5961,0.4039	-2652.01
0.6220,0.3780	-2648.32
0.4516,0.5484	-2651.34
0.4024,0.5976	-2650.25
0.4629,0.5371	-2650.20
0.5064,0.4936	-2650.57
0.5773,0.4227	-2650.29
0.5993,0.4007	-2649.68
0.4252,0.5748	-2650.30
0.4343,0.5657	-2652.08
0.5184,0.4816	-2650.09
0.4677,0.5323	-2650.62
0.5803,0.4197	-2649.34
0.6642,0.3358	-2652.44
0.4434,0.5566	-2651.09
0.4195,0.5805	-2650.69
0.4691,0.5309	-2651.23
0.4805,0.5195	-2650.57
0.5560,0.4440	-2650.22
0.6908,0.3092	-2654.18
0.4459,0.5541	-2651.70
0.4308,0.5692	-2651.64
0.4390,0.5610	-2651.18
0.4727,0.5273	-2650.92
0.5550,0.4450	-2649.33
0.6877,0.3123	-2646.95
0.4674,0.5326	-2651.14
0.4366,0.5634	-2650.98
0.4684,0.5316	-2651.50
0.4629,0.5371	-2650.80
0.5215,0.4785	-2650.44
0.7157,0.2843	-2651.67
0.4825,0.5175	-2650.36
0.3819,0.6181	-2651.17
0.5279,0.4721	-2650.30
0.4807,0.5193	-2651.04
0.5376,0.4624	-2651.15
0.6926,0.3074	-2645.33
0.4702,0.5298	-2650.96
0.3928,0.6072	-2651.74
0.5375,0.4625	-2650.55
0.5146,0.4854	-2650.77
0.5309,0.4691	-2650.90
0.7037,0.2963	-2648.72
0.4888,0.5112	-2650.57
0.4691,0.5309	-2651.35
0.5799,0.4201	-2649.34
0.5061,0.4939	-2650.54
0.5186,0.4814	-2650.30
0.7117,0.2883	-2649.74
0.4409,0.5591	-2650.67
0.4995,0.5005	-2650.60
0.6073,0.3927	-2651.89
0.5123,0.4877	-2650.74
0.4688,0.5312	-2650.61
0.7416,0.2584	-2646.25
0.4209,0.5791	-2651.30
0.5269,0.4731	-2650.63
0.6061,0.3939	-2649.28
0.5745,0.4255	-2649.67
0.4520,0.5480	-2651.72
0.7777,0.2223	-2649.18
0.3915,0.6085	-2648.69
0.5939,0.4061	-2653.09
0.5565,0.4435	-2651.35
0.5310,0.4690	-2650.03
0.4480,0.5520	-2651.85
0.7129,0.2871	-2642.49
0.4368,0.5632	-2652.24
0.6379,0.3621	-2646.59
0.5560,0.4440	-2650.22
0.5249,0.4751	-2650.72
0.4182,0.5818	-2652.69
0.7518,0.2482	-2648.56
0.5005,0.4995	-2650.61
0.5547,0.4453	-2650.43
0.5599,0.4401	-2649.26
0.5329,0.4671	-2650.14
0.4288,0.5712	-2651.13
0.7520,0.2480	-2646.34
0.5103,0.4897	-2650.76
0.6161,0.3839	-2647.41
0.5840,0.4160	-2648.64
0.5146,0.4854	-2650.42
0.4790,0.5210	-2650.91
0.7006,0.2994	-2648.68
0.4994,0.5006	-2650.61
0.6625,0.3375	-2648.34
0.5944,0.4056	-2651.58
0.5188,0.4812	-2651.13
0.5248,0.4752	-2650.42
0.6880,0.3120	-2650.90
0.5047,0.4953	-2650.56
0.6359,0.3641	-2647.73
0.5837,0.4163	-2650.33
0.5202,0.4798	-2650.28
0.5067,0.4933	-2650.48
0.7342,0.2658	-2650.27
0.5293,0.4707	-2650.76
0.6192,0.3808	-2649.31
0.5707,0.4293	-2649.12
0.5497,0.4503	-2651.21
0.5466,0.4534	-2650.59
0.7218,0.2782	-2647.10
0.5097,0.4903	-2650.51
0.6189,0.3811	-2649.31
0.5615,0.4385	-2650.22
0.5744,0.4256	-2650.27
0.5502,0.4498	-2650.62
0.7396,0.2604	-2653.55
0.4648,0.5352	-2650.78
0.6013,0.3987	-2648.87
0.6142,0.3858	-2648.36
0.5645,0.4355	-2650.23
0.4637,0.5363	-2651.95
0.6925,0.3075	-2650.20
0.4869,0.5131	-2650.88
0.6045,0.3955	-2648.00
0.6554,0.3446	-2647.02
0.5514,0.4486	-2651.45
0.4607,0.5393	-2650.51
0.6726,0.3274	-2649.12
0.4658,0.5342	-2650.36
0.5684,0.4316	-2649.69
0.6460,0.3540	-2650.09
0.4702,0.5298	-2651.80
0.4209,0.5791	-2652.26
0.6891,0.3109	-2645.36
0.4801,0.5199	-2650.57
0.5465,0.4535	-2650.41
0.6300,0.3700	-2649.36
0.5228,0.4772	-2650.07
0.3849,0.6151	-2653.42
0.7007,0.2993	-2652.08
0.5320,0.4680	-2650.53
0.5821,0.4179	-2650.65
0.6307,0.3693	-2648.83
0.5301,0.4699	-2649.68
0.4038,0.5962	-2650.62
0.7509,0.2491	-2650.75
0.5059,0.4941	-2650.66
0.5798,0.4202	-2649.34
0.6289,0.3711	-2648.30
0.5148,0.4852	-2650.42
0.4107,0.5893	-2651.94
0.6989,0.3011	-2652.87
0.5564,0.4436	-2650.22
0.5564,0.4436	-2650.44
0.6573,0.3427	-2654.83
0.5435,0.4565	-2650.58
0.4255,0.5745	-2650.60
0.6611,0.3389	-2648.33
0.4912,0.5088	-2650.75
0.5397,0.4603	-2650.72
0.6583,0.3417	-2648.97
0.4950,0.5050	-2650.59
0.3789,0.6211	-2650.77
0.6563,0.3437	-2648.31
0.4858,0.5142	-2650.63
0.4965,0.5035	-2650.66
0.6205,0.3795	-2648.82
0.4857,0.5143	-2650.45
0.3962,0.6038	-2652.47
0.6985,0.3015	-2649.49
0.4774,0.5226	-2650.40
0.4601,0.5399	-2651.15
0.6261,0.3739	-2648.31
0.5021,0.4979	-2650.63
0.4039,0.5961	-2650.61
0.7506,0.2494	-2640.82
0.5915,0.4085	-2650.40
0.4531,0.5469	-2650.36
0.5882,0.4118	-2651.09
0.5421,0.4579	-2649.89
0.4543,0.5457	-2650.36
0.7433,0.2567	-2649.46
0.5651,0.4349	-2651.54
0.5293,0.4707	-2650.06
0.5825,0.4175	-2650.99
0.5619,0.4381	-2650.72
0.4681,0.5319	-2650.49
0.7779,0.2221	-2651.69
0.5380,0.4620	-2650.85
0.5080,0.4920	-2650.56
0.5641,0.4359	-2649.20
0.5674,0.4326	-2651.06
0.5299,0.4701	-2651.01
0.7524,0.2476	-2649.68
0.5728,0.4272	-2649.68
0.4898,0.5102	-2650.65
0.5971,0.4029	-2649.28
0.5713,0.4287	-2650.54
0.4879,0.5121	-2650.81
0.7626,0.2374	-2645.29
