#isoforms=['ENSG00000101294.SE.1.A.up_ENSG00000101294.SE.1.A.SE1_ENSG00000101294.SE.1.A.dn','ENSG00000101294.SE.1.B.up_ENSG00000101294.SE.1.B.dn']	exon_lens=('ENSG00000101294.SE.1.A.up',99),('ENSG00000101294.SE.1.A.SE1',376),('ENSG00000101294.SE.1.A.dn',89),('ENSG00000101294.SE.1.B.up',99),('ENSG00000101294.SE.1.B.dn',89)	iters=5000	burn_in=500	lag=10	percent_accept=97.91	proposal_type=drift	counts=(0,0):565,(1,0):147	assigned_counts=0:147	chrom=chr20	strand=+	mRNA_starts=31527484,31527484	mRNA_ends=31545035,31545035
sampled_psi	log_score
0.9351,0.0649	-904.49
0.9429,0.0571	-904.24
0.8886,0.1114	-906.02
0.9318,0.0682	-904.59
0.9690,0.0310	-903.45
0.9611,0.0389	-903.69
0.9500,0.0500	-904.02
0.9372,0.0628	-904.42
0.8846,0.1154	-906.15
0.9321,0.0679	-904.58
0.9715,0.0285	-903.38
0.9548,0.0452	-903.88
0.9538,0.0462	-903.91
0.9377,0.0623	-904.40
0.8850,0.1150	-906.14
0.9493,0.0507	-904.04
0.9744,0.0256	-903.29
0.9619,0.0381	-903.66
0.9590,0.0410	-903.75
0.9273,0.0727	-904.73
0.9090,0.0910	-905.33
0.9481,0.0519	-904.08
0.9753,0.0247	-903.27
0.9653,0.0347	-903.56
0.9553,0.0447	-903.86
0.9271,0.0729	-904.74
0.9253,0.0747	-904.80
0.9493,0.0507	-904.05
0.9723,0.0277	-903.36
0.9707,0.0293	-903.40
0.9647,0.0353	-903.58
0.9207,0.0793	-904.94
0.9272,0.0728	-904.74
0.9637,0.0363	-903.61
0.9665,0.0335	-903.53
0.9745,0.0255	-903.29
0.9676,0.0324	-903.49
0.9378,0.0622	-904.40
0.9336,0.0664	-904.53
0.9483,0.0517	-904.07
0.9695,0.0305	-903.44
0.9728,0.0272	-903.34
0.9640,0.0360	-903.60
0.9317,0.0683	-904.59
0.9466,0.0534	-904.13
0.9569,0.0431	-903.81
0.9664,0.0336	-903.53
0.9739,0.0261	-903.31
0.9628,0.0372	-903.64
0.9379,0.0621	-904.40
0.9642,0.0358	-903.60
0.9691,0.0309	-903.45
0.9606,0.0394	-903.70
0.9707,0.0293	-903.40
0.9575,0.0425	-903.80
0.9344,0.0656	-904.51
0.9628,0.0372	-903.64
0.9693,0.0307	-903.44
0.9663,0.0337	-903.53
0.9726,0.0274	-903.35
0.9599,0.0401	-903.72
0.9206,0.0794	-904.95
0.9703,0.0297	-903.41
0.9658,0.0342	-903.55
0.9583,0.0417	-903.77
0.9826,0.0174	-903.06
0.9587,0.0413	-903.76
0.9199,0.0801	-904.97
0.9746,0.0254	-903.29
0.9724,0.0276	-903.35
0.9675,0.0325	-903.50
0.9815,0.0185	-903.09
0.9570,0.0430	-903.81
0.9279,0.0721	-904.71
0.9692,0.0308	-903.45
0.9688,0.0312	-903.46
0.9657,0.0343	-903.55
0.9768,0.0232	-903.22
0.9539,0.0461	-903.90
0.9080,0.0920	-905.36
0.9718,0.0282	-903.37
0.9690,0.0310	-903.45
0.9597,0.0403	-903.73
0.9754,0.0246	-903.27
0.9560,0.0440	-903.84
0.9135,0.0865	-905.18
0.9684,0.0316	-903.47
0.9657,0.0343	-903.55
0.9605,0.0395	-903.71
0.9716,0.0284	-903.38
0.9618,0.0382	-903.67
0.9295,0.0705	-904.66
0.9644,0.0356	-903.59
0.9734,0.0266	-903.32
0.9596,0.0404	-903.73
0.9715,0.0285	-903.38
0.9603,0.0397	-903.71
0.9381,0.0619	-904.39
0.9599,0.0401	-903.72
0.9744,0.0256	-903.29
0.9596,0.0404	-903.73
0.9764,0.0236	-903.24
0.9545,0.0455	-903.89
0.9512,0.0488	-903.99
0.9525,0.0475	-903.95
0.9709,0.0291	-903.40
0.9620,0.0380	-903.66
0.9782,0.0218	-903.18
0.9542,0.0458	-903.89
0.9478,0.0522	-904.09
0.9513,0.0487	-903.98
0.9632,0.0368	-903.62
0.9546,0.0454	-903.88
0.9659,0.0341	-903.54
0.9527,0.0473	-903.94
0.9424,0.0576	-904.26
0.9608,0.0392	-903.69
0.9673,0.0327	-903.50
0.9528,0.0472	-903.94
0.9683,0.0317	-903.47
0.9513,0.0487	-903.98
0.9443,0.0557	-904.20
0.9643,0.0357	-903.59
0.9573,0.0427	-903.80
0.9540,0.0460	-903.90
0.9729,0.0271	-903.34
0.9463,0.0537	-904.14
0.9443,0.0557	-904.20
0.9643,0.0357	-903.59
0.9552,0.0448	-903.87
0.9488,0.0512	-904.06
0.9722,0.0278	-903.36
0.9362,0.0638	-904.45
0.9407,0.0593	-904.31
0.9627,0.0373	-903.64
0.9584,0.0416	-903.77
0.9453,0.0547	-904.17
0.9711,0.0289	-903.39
0.9429,0.0571	-904.24
0.9487,0.0513	-904.06
0.9634,0.0366	-903.62
0.9576,0.0424	-903.79
0.9578,0.0422	-903.79
0.9722,0.0278	-903.36
0.9557,0.0443	-903.85
0.9564,0.0436	-903.83
0.9676,0.0324	-903.49
0.9610,0.0390	-903.69
0.9622,0.0378	-903.65
0.9698,0.0302	-903.43
0.9502,0.0498	-904.02
0.9475,0.0525	-904.10
0.9650,0.0350	-903.57
0.9677,0.0323	-903.49
0.9597,0.0403	-903.73
0.9770,0.0230	-903.22
0.9539,0.0461	-903.90
0.9515,0.0485	-903.98
0.9658,0.0342	-903.55
0.9664,0.0336	-903.53
0.9547,0.0453	-903.88
0.9717,0.0283	-903.37
0.9540,0.0460	-903.90
0.9544,0.0456	-903.89
0.9683,0.0317	-903.47
0.9587,0.0413	-903.76
0.9599,0.0401	-903.72
0.9732,0.0268	-903.33
0.9533,0.0467	-903.92
0.9408,0.0592	-904.31
0.9621,0.0379	-903.66
0.9690,0.0310	-903.45
0.9644,0.0356	-903.59
0.9724,0.0276	-903.35
0.9454,0.0546	-904.16
0.9369,0.0631	-904.43
0.9564,0.0436	-903.83
0.9709,0.0291	-903.40
0.9668,0.0332	-903.52
0.9717,0.0283	-903.37
0.9480,0.0520	-904.08
0.9246,0.0754	-904.82
0.9491,0.0509	-904.05
0.9642,0.0358	-903.59
0.9638,0.0362	-903.61
0.9621,0.0379	-903.66
0.9409,0.0591	-904.30
0.9422,0.0578	-904.26
0.9490,0.0510	-904.05
0.9667,0.0333	-903.52
0.9575,0.0425	-903.80
0.9580,0.0420	-903.78
0.9269,0.0731	-904.74
0.9464,0.0536	-904.13
0.9364,0.0636	-904.44
0.9719,0.0281	-903.37
0.9556,0.0444	-903.85
0.9623,0.0377	-903.65
0.9313,0.0687	-904.60
0.9388,0.0612	-904.37
0.9381,0.0619	-904.39
0.9741,0.0259	-903.30
0.9509,0.0491	-903.99
0.9657,0.0343	-903.55
0.9418,0.0582	-904.27
0.9347,0.0653	-904.50
0.9348,0.0652	-904.49
0.9688,0.0312	-903.46
0.9497,0.0503	-904.03
0.9598,0.0402	-903.73
0.9456,0.0544	-904.16
0.9325,0.0675	-904.57
0.9423,0.0577	-904.26
0.9678,0.0322	-903.49
0.9518,0.0482	-903.97
0.9538,0.0462	-903.91
0.9548,0.0452	-903.88
0.9290,0.0710	-904.68
0.9467,0.0533	-904.13
0.9618,0.0382	-903.67
0.9534,0.0466	-903.92
0.9575,0.0425	-903.79
0.9509,0.0491	-904.00
0.9228,0.0772	-904.88
0.9423,0.0577	-904.26
0.9649,0.0351	-903.57
0.9604,0.0396	-903.71
0.9600,0.0400	-903.72
0.9537,0.0463	-903.91
0.9093,0.0907	-905.32
0.9358,0.0642	-904.46
0.9645,0.0355	-903.58
0.9656,0.0344	-903.55
0.9552,0.0448	-903.87
0.9526,0.0474	-903.94
0.9152,0.0848	-905.13
0.9446,0.0554	-904.19
0.9674,0.0326	-903.50
0.9730,0.0270	-903.34
0.9540,0.0460	-903.90
0.9589,0.0411	-903.75
0.9366,0.0634	-904.44
0.9458,0.0542	-904.15
0.9738,0.0262	-903.31
0.9591,0.0409	-903.75
0.9587,0.0413	-903.76
0.9593,0.0407	-903.74
0.9472,0.0528	-904.11
0.9476,0.0524	-904.10
0.9768,0.0232	-903.22
0.9598,0.0402	-903.73
0.9558,0.0442	-903.85
0.9589,0.0411	-903.75
0.9574,0.0426	-903.80
0.9587,0.0413	-903.76
0.9767,0.0233	-903.23
0.9600,0.0400	-903.72
0.9540,0.0460	-903.90
0.9611,0.0389	-903.69
0.9546,0.0454	-903.88
0.9464,0.0536	-904.13
0.9691,0.0309	-903.45
0.9547,0.0453	-903.88
0.9548,0.0452	-903.88
0.9602,0.0398	-903.72
0.9610,0.0390	-903.69
0.9508,0.0492	-904.00
0.9543,0.0457	-903.89
0.9544,0.0456	-903.89
0.9638,0.0362	-903.61
0.9563,0.0437	-903.83
0.9511,0.0489	-903.99
0.9513,0.0487	-903.98
0.9480,0.0520	-904.09
0.9574,0.0426	-903.80
0.9628,0.0372	-903.63
0.9488,0.0512	-904.06
0.9601,0.0399	-903.72
0.9576,0.0424	-903.79
0.9525,0.0475	-903.95
0.9649,0.0351	-903.57
0.9688,0.0312	-903.46
0.9413,0.0587	-904.29
0.9585,0.0415	-903.76
0.9615,0.0385	-903.67
0.9465,0.0535	-904.13
0.9685,0.0315	-903.47
0.9685,0.0315	-903.47
0.9399,0.0601	-904.34
0.9525,0.0475	-903.95
0.9639,0.0361	-903.60
0.9346,0.0654	-904.50
0.9747,0.0253	-903.28
0.9740,0.0260	-903.30
0.9253,0.0747	-904.80
0.9577,0.0423	-903.79
0.9598,0.0402	-903.73
0.9491,0.0509	-904.05
0.9761,0.0239	-903.24
0.9651,0.0349	-903.57
0.9346,0.0654	-904.50
0.9547,0.0453	-903.88
0.9708,0.0292	-903.40
0.9485,0.0515	-904.07
0.9757,0.0243	-903.26
0.9736,0.0264	-903.32
0.9401,0.0599	-904.33
0.9558,0.0442	-903.85
0.9761,0.0239	-903.24
0.9512,0.0488	-903.99
0.9723,0.0277	-903.36
0.9764,0.0236	-903.23
0.9214,0.0786	-904.92
0.9440,0.0560	-904.21
0.9766,0.0234	-903.23
0.9543,0.0457	-903.89
0.9760,0.0240	-903.25
0.9756,0.0244	-903.26
0.9066,0.0934	-905.41
0.9489,0.0511	-904.06
0.9771,0.0229	-903.21
0.9521,0.0479	-903.96
0.9736,0.0264	-903.32
0.9790,0.0210	-903.16
0.8883,0.1117	-906.03
0.9589,0.0411	-903.75
0.9663,0.0337	-903.53
0.9428,0.0572	-904.25
0.9702,0.0298	-903.42
0.9813,0.0187	-903.09
0.8574,0.1426	-907.13
0.9667,0.0333	-903.52
0.9657,0.0343	-903.55
0.9576,0.0424	-903.79
0.9702,0.0298	-903.42
0.9830,0.0170	-903.04
0.8474,0.1526	-907.50
0.9717,0.0283	-903.37
0.9620,0.0380	-903.66
0.9521,0.0479	-903.96
0.9572,0.0428	-903.81
0.9849,0.0151	-902.99
0.8479,0.1521	-907.48
0.9685,0.0315	-903.47
0.9590,0.0410	-903.75
0.9559,0.0441	-903.84
0.9490,0.0510	-904.05
0.9858,0.0142	-902.96
0.8367,0.1633	-907.91
0.9720,0.0280	-903.36
0.9516,0.0484	-903.97
0.9481,0.0519	-904.08
0.9490,0.0510	-904.05
0.9829,0.0171	-903.05
0.8733,0.1267	-906.55
0.9696,0.0304	-903.43
0.9392,0.0608	-904.36
0.9338,0.0662	-904.53
0.9552,0.0448	-903.86
0.9811,0.0189	-903.10
0.8959,0.1041	-905.77
0.9643,0.0357	-903.59
0.9359,0.0641	-904.46
0.9462,0.0538	-904.14
0.9600,0.0400	-903.72
0.9826,0.0174	-903.06
0.9165,0.0835	-905.08
0.9644,0.0356	-903.59
0.9474,0.0526	-904.10
0.9476,0.0524	-904.10
0.9638,0.0362	-903.61
0.9857,0.0143	-902.97
0.9152,0.0848	-905.12
0.9660,0.0340	-903.54
0.9499,0.0501	-904.03
0.9421,0.0579	-904.27
0.9722,0.0278	-903.36
0.9862,0.0138	-902.95
0.9053,0.0947	-905.45
0.9704,0.0296	-903.41
0.9485,0.0515	-904.07
0.9533,0.0467	-903.92
0.9712,0.0288	-903.39
0.9872,0.0128	-902.92
0.9066,0.0934	-905.41
0.9731,0.0269	-903.33
0.9593,0.0407	-903.74
0.9510,0.0490	-903.99
0.9728,0.0272	-903.34
0.9890,0.0110	-902.87
0.8986,0.1014	-905.67
0.9702,0.0298	-903.42
0.9541,0.0459	-903.90
0.9511,0.0489	-903.99
0.9664,0.0336	-903.53
0.9881,0.0119	-902.90
0.8928,0.1072	-905.87
0.9672,0.0328	-903.50
0.9657,0.0343	-903.55
0.9541,0.0459	-903.90
0.9717,0.0283	-903.37
0.9895,0.0105	-902.86
0.8984,0.1016	-905.68
0.9612,0.0388	-903.68
0.9666,0.0334	-903.52
0.9557,0.0443	-903.85
0.9758,0.0242	-903.25
0.9915,0.0085	-902.80
0.8991,0.1009	-905.66
0.9629,0.0371	-903.63
0.9617,0.0383	-903.67
0.9563,0.0437	-903.83
0.9775,0.0225	-903.20
0.9922,0.0078	-902.78
0.8794,0.1206	-906.34
0.9519,0.0481	-903.96
0.9646,0.0354	-903.58
0.9640,0.0360	-903.60
0.9752,0.0248	-903.27
0.9923,0.0077	-902.78
0.8794,0.1206	-906.34
0.9608,0.0392	-903.70
0.9599,0.0401	-903.72
0.9706,0.0294	-903.40
0.9654,0.0346	-903.56
0.9927,0.0073	-902.77
0.8794,0.1206	-906.34
0.9574,0.0426	-903.80
0.9614,0.0386	-903.68
0.9650,0.0350	-903.57
0.9662,0.0338	-903.53
0.9924,0.0076	-902.78
0.8843,0.1157	-906.17
0.9664,0.0336	-903.53
0.9574,0.0426	-903.80
0.9629,0.0371	-903.63
0.9710,0.0290	-903.39
0.9917,0.0083	-902.80
0.8883,0.1117	-906.03
0.9701,0.0299	-903.42
0.9634,0.0366	-903.62
0.9733,0.0267	-903.32
0.9644,0.0356	-903.59
0.9898,0.0102	-902.85
0.8850,0.1150	-906.14
0.9664,0.0336	-903.53
0.9452,0.0548	-904.17
0.9744,0.0256	-903.29
0.9697,0.0303	-903.43
0.9893,0.0107	-902.86
0.8952,0.1048	-905.79
0.9756,0.0244	-903.26
0.9419,0.0581	-904.27
0.9784,0.0216	-903.18
0.9673,0.0327	-903.50
0.9876,0.0124	-902.91
0.8914,0.1086	-905.92
0.9723,0.0277	-903.35
0.9494,0.0506	-904.04
0.9823,0.0177	-903.06
0.9662,0.0338	-903.53
0.9871,0.0129	-902.93
0.9284,0.0716	-904.70
0.9729,0.0271	-903.34
0.9511,0.0489	-903.99
0.9763,0.0237	-903.24
0.9677,0.0323	-903.49
0.9869,0.0131	-902.93
0.9384,0.0616	-904.38
0.9728,0.0272	-903.34
0.9554,0.0446	-903.86
0.9715,0.0285	-903.38
0.9594,0.0406	-903.74
0.9825,0.0175	-903.06
0.9341,0.0659	-904.52
0.9702,0.0298	-903.42
0.9696,0.0304	-903.43
0.9675,0.0325	-903.50
0.9540,0.0460	-903.90
0.9838,0.0162	-903.02
0.9419,0.0581	-904.27
0.9722,0.0278	-903.36
0.9674,0.0326	-903.50
0.9713,0.0287	-903.38
0.9546,0.0454	-903.88
0.9792,0.0208	-903.15
0.9402,0.0598	-904.33
0.9661,0.0339	-903.54
0.9643,0.0357	-903.59
0.9681,0.0319	-903.48
0.9466,0.0534	-904.13
0.9804,0.0196	-903.12
0.9322,0.0678	-904.58
0.9666,0.0334	-903.52
0.9672,0.0328	-903.50
0.9740,0.0260	-903.31
0.9455,0.0545	-904.16
0.9836,0.0164	-903.03
0.9181,0.0819	-905.03
0.9714,0.0286	-903.38
0.9652,0.0348	-903.57
0.9773,0.0227	-903.21
0.9418,0.0582	-904.28
0.9823,0.0177	-903.06
0.9058,0.0942	-905.43
0.9701,0.0299	-903.42
0.9704,0.0296	-903.41
0.9823,0.0177	-903.06
0.9400,0.0600	-904.33
0.9804,0.0196	-903.12
0.9066,0.0934	-905.41
0.9642,0.0358	-903.60
0.9731,0.0269	-903.33
0.9846,0.0154	-903.00
0.9343,0.0657	-904.51
0.9818,0.0182	-903.08
0.9048,0.0952	-905.47
0.9467,0.0533	-904.13
0.9719,0.0281	-903.37
0.9791,0.0209	-903.16
0.9385,0.0615	-904.38
0.9828,0.0172	-903.05
0.8899,0.1101	-905.97
0.9429,0.0571	-904.24
0.9807,0.0193	-903.11
0.9796,0.0204	-903.14
0.9577,0.0423	-903.79
0.9811,0.0189	-903.10
0.9097,0.0903	-905.31
0.9574,0.0426	-903.80
0.9726,0.0274	-903.35
0.9828,0.0172	-903.05
0.9560,0.0440	-903.84
0.9800,0.0200	-903.13
0.9156,0.0844	-905.11
0.9628,0.0372	-903.64
0.9628,0.0372	-903.63
0.9828,0.0172	-903.05
0.9600,0.0400	-903.72
0.9794,0.0206	-903.15
0.9229,0.0771	-904.87
0.9620,0.0380	-903.66
0.9700,0.0300	-903.42
0.9871,0.0129	-902.93
0.9637,0.0363	-903.61
0.9762,0.0238	-903.24
0.9425,0.0575	-904.25
0.9493,0.0507	-904.05
0.9736,0.0264	-903.32
0.9887,0.0113	-902.88
0.9556,0.0444	-903.85
0.9767,0.0233	-903.23
0.9425,0.0575	-904.25
0.9444,0.0556	-904.20
0.9758,0.0242	-903.25
0.9871,0.0129	-902.93
0.9631,0.0369	-903.63
0.9793,0.0207	-903.15
0.9400,0.0600	-904.33
0.9463,0.0537	-904.14
0.9721,0.0279	-903.36
0.9858,0.0142	-902.96
0.9592,0.0408	-903.74
0.9808,0.0192	-903.11
0.9379,0.0621	-904.40
0.9556,0.0444	-903.85
0.9637,0.0363	-903.61
0.9853,0.0147	-902.98
0.9520,0.0480	-903.96
0.9836,0.0164	-903.03
0.9336,0.0664	-904.53
0.9683,0.0317	-903.47
0.9646,0.0354	-903.58
0.9793,0.0207	-903.15
0.9644,0.0356	-903.59
0.9837,0.0163	-903.03
0.9416,0.0584	-904.28
0.9689,0.0311	-903.46
0.9695,0.0305	-903.44
0.9744,0.0256	-903.29
0.9721,0.0279	-903.36
0.9843,0.0157	-903.01
0.9391,0.0609	-904.36
0.9715,0.0285	-903.38
0.9629,0.0371	-903.63
0.9803,0.0197	-903.12
0.9711,0.0289	-903.39
0.9849,0.0151	-902.99
0.9510,0.0490	-903.99
0.9640,0.0360	-903.60
0.9680,0.0320	-903.48
0.9791,0.0209	-903.16
0.9720,0.0280	-903.36
0.9841,0.0159	-903.01
0.9335,0.0665	-904.54
0.9584,0.0416	-903.77
0.9740,0.0260	-903.31
0.9787,0.0213	-903.17
0.9662,0.0338	-903.53
0.9848,0.0152	-902.99
0.9446,0.0554	-904.19
0.9558,0.0442	-903.85
0.9763,0.0237	-903.24
0.9779,0.0221	-903.19
0.9704,0.0296	-903.41
0.9843,0.0157	-903.01
0.9490,0.0510	-904.05
0.9559,0.0441	-903.84
0.9753,0.0247	-903.27
0.9766,0.0234	-903.23
0.9680,0.0320	-903.48
0.9796,0.0204	-903.14
0.9539,0.0461	-903.90
0.9549,0.0451	-903.87
0.9768,0.0232	-903.22
0.9712,0.0288	-903.39
0.9637,0.0363	-903.61
0.9832,0.0168	-903.04
0.9632,0.0368	-903.63
0.9494,0.0506	-904.04
0.9759,0.0241	-903.25
0.9700,0.0300	-903.42
0.9587,0.0413	-903.76
0.9818,0.0182	-903.08
0.9635,0.0365	-903.62
0.9465,0.0535	-904.13
0.9801,0.0199	-903.13
0.9702,0.0298	-903.42
0.9653,0.0347	-903.56
0.9762,0.0238	-903.24
0.9679,0.0321	-903.49
0.9440,0.0560	-904.21
0.9725,0.0275	-903.35
0.9654,0.0346	-903.56
0.9702,0.0298	-903.42
0.9779,0.0221	-903.19
0.9612,0.0388	-903.68
0.9421,0.0579	-904.27
0.9713,0.0287	-903.39
0.9682,0.0318	-903.48
0.9726,0.0274	-903.35
0.9697,0.0303	-903.43
0.9645,0.0355	-903.59
0.9411,0.0589	-904.30
0.9723,0.0277	-903.36
0.9684,0.0316	-903.47
0.9736,0.0264	-903.32
0.9714,0.0286	-903.38
0.9679,0.0321	-903.48
0.9429,0.0571	-904.24
0.9751,0.0249	-903.27
0.9688,0.0312	-903.46
0.9740,0.0260	-903.30
0.9737,0.0263	-903.31
0.9640,0.0360	-903.60
0.9485,0.0515	-904.07
0.9757,0.0243	-903.26
0.9702,0.0298	-903.42
0.9711,0.0289	-903.39
0.9722,0.0278	-903.36
0.9619,0.0381	-903.66
0.9479,0.0521	-904.09
0.9798,0.0202	-903.14
0.9755,0.0245	-903.26
0.9730,0.0270	-903.34
0.9694,0.0306	-903.44
0.9595,0.0405	-903.73
0.9579,0.0421	-903.78
0.9800,0.0200	-903.13
0.9688,0.0312	-903.46
0.9650,0.0350	-903.57
0.9763,0.0237	-903.24
0.9703,0.0297	-903.42
0.9521,0.0479	-903.96
0.9845,0.0155	-903.00
0.9655,0.0345	-903.56
0.9674,0.0326	-903.50
0.9732,0.0268	-903.33
0.9648,0.0352	-903.58
0.9413,0.0587	-904.29
0.9832,0.0168	-903.04
0.9623,0.0377	-903.65
0.9684,0.0316	-903.47
0.9705,0.0295	-903.41
0.9617,0.0383	-903.67
0.9117,0.0883	-905.24
0.9794,0.0206	-903.15
0.9645,0.0355	-903.59
0.9551,0.0449	-903.87
0.9726,0.0274	-903.35
0.9541,0.0459	-903.90
0.9229,0.0771	-904.87
0.9791,0.0209	-903.16
0.9597,0.0403	-903.73
0.9524,0.0476	-903.95
0.9735,0.0265	-903.32
0.9457,0.0543	-904.15
0.9456,0.0544	-904.16
0.9767,0.0233	-903.23
0.9663,0.0337	-903.53
0.9357,0.0643	-904.47
0.9737,0.0263	-903.31
0.9408,0.0592	-904.31
0.9516,0.0484	-903.97
0.9709,0.0291	-903.40
0.9666,0.0334	-903.52
0.9284,0.0716	-904.70
0.9744,0.0256	-903.29
0.9401,0.0599	-904.33
0.9594,0.0406	-903.74
0.9687,0.0313	-903.46
0.9659,0.0341	-903.54
0.9455,0.0545	-904.16
0.9734,0.0266	-903.32
0.9241,0.0759	-904.84
0.9603,0.0397	-903.71
0.9773,0.0227	-903.21
0.9697,0.0303	-903.43
0.9396,0.0604	-904.35
0.9719,0.0281	-903.37
0.9456,0.0544	-904.16
0.9512,0.0488	-903.99
0.9734,0.0266	-903.32
0.9711,0.0289	-903.39
0.9427,0.0573	-904.25
0.9667,0.0333	-903.52
0.9438,0.0562	-904.21
0.9504,0.0496	-904.01
0.9715,0.0285	-903.38
0.9726,0.0274	-903.35
0.9462,0.0538	-904.14
0.9681,0.0319	-903.48
0.9512,0.0488	-903.99
0.9427,0.0573	-904.25
0.9753,0.0247	-903.27
0.9686,0.0314	-903.46
0.9327,0.0673	-904.56
0.9731,0.0269	-903.33
0.9514,0.0486	-903.98
0.9383,0.0617	-904.39
0.9821,0.0179	-903.07
0.9650,0.0350	-903.57
0.9303,0.0697	-904.64
0.9766,0.0234	-903.23
0.9513,0.0487	-903.98
0.9362,0.0638	-904.45
0.9831,0.0169	-903.04
0.9660,0.0340	-903.54
0.9224,0.0776	-904.89
0.9749,0.0251	-903.28
0.9324,0.0676	-904.57
0.9317,0.0683	-904.59
0.9832,0.0168	-903.04
0.9660,0.0340	-903.54
0.9193,0.0807	-904.99
0.9787,0.0213	-903.17
0.9274,0.0726	-904.73
0.9407,0.0593	-904.31
0.9833,0.0167	-903.04
0.9767,0.0233	-903.23
0.9274,0.0726	-904.73
0.9793,0.0207	-903.15
0.9363,0.0637	-904.45
0.9382,0.0618	-904.39
0.9843,0.0157	-903.01
0.9788,0.0212	-903.17
0.9348,0.0652	-904.49
0.9816,0.0184	-903.08
0.9446,0.0554	-904.19
0.9380,0.0620	-904.39
0.9796,0.0204	-903.14
0.9775,0.0225	-903.20
0.9246,0.0754	-904.82
0.9820,0.0180	-903.07
0.9563,0.0437	-903.83
0.9302,0.0698	-904.64
0.9784,0.0216	-903.18
0.9813,0.0187	-903.09
0.9188,0.0812	-905.01
0.9782,0.0218	-903.18
0.9609,0.0391	-903.69
0.9213,0.0787	-904.93
0.9774,0.0226	-903.21
0.9787,0.0213	-903.17
0.9165,0.0835	-905.08
0.9770,0.0230	-903.22
0.9715,0.0285	-903.38
0.8997,0.1003	-905.64
0.9738,0.0262	-903.31
0.9760,0.0240	-903.25
0.9141,0.0859	-905.16
0.9751,0.0249	-903.27
0.9688,0.0312	-903.46
0.9122,0.0878	-905.22
0.9757,0.0243	-903.26
0.9735,0.0265	-903.32
0.9406,0.0594	-904.31
0.9781,0.0219	-903.19
0.9712,0.0288	-903.39
0.9225,0.0775	-904.89
0.9768,0.0232	-903.22
0.9701,0.0299	-903.42
0.9281,0.0719	-904.71
0.9785,0.0215	-903.17
0.9710,0.0290	-903.39
0.9202,0.0798	-904.96
0.9763,0.0237	-903.24
0.9784,0.0216	-903.18
0.9249,0.0751	-904.81
0.9845,0.0155	-903.00
0.9767,0.0233	-903.23
0.9333,0.0667	-904.54
0.9718,0.0282	-903.37
0.9783,0.0217	-903.18
0.9090,0.0910	-905.33
0.9873,0.0127	-902.92
0.9795,0.0205	-903.14
0.9129,0.0871	-905.20
0.9739,0.0261	-903.31
0.9699,0.0301	-903.42
0.9060,0.0940	-905.43
0.9888,0.0112	-902.88
0.9754,0.0246	-903.26
0.8917,0.1083	-905.91
0.9686,0.0314	-903.46
0.9736,0.0264	-903.32
0.9178,0.0822	-905.04
0.9866,0.0134	-902.94
0.9726,0.0274	-903.35
0.8849,0.1151	-906.14
0.9682,0.0318	-903.48
0.9713,0.0287	-903.38
0.8938,0.1062	-905.84
0.9901,0.0099	-902.84
0.9773,0.0227	-903.21
0.8892,0.1108	-906.00
0.9697,0.0303	-903.43
0.9651,0.0349	-903.57
0.9108,0.0892	-905.27
0.9928,0.0072	-902.76
0.9793,0.0207	-903.15
0.8792,0.1208	-906.34
0.9700,0.0300	-903.42
0.9650,0.0350	-903.57
0.9191,0.0809	-905.00
0.9932,0.0068	-902.75
0.9792,0.0208	-903.16
0.8967,0.1033	-905.74
0.9709,0.0291	-903.40
0.9763,0.0237	-903.24
0.9292,0.0708	-904.67
0.9931,0.0069	-902.76
0.9758,0.0242	-903.25
0.8613,0.1387	-906.99
0.9661,0.0339	-903.54
0.9702,0.0298	-903.42
0.9246,0.0754	-904.82
0.9927,0.0073	-902.77
0.9712,0.0288	-903.39
0.8617,0.1383	-906.97
0.9670,0.0330	-903.51
0.9714,0.0286	-903.38
0.9206,0.0794	-904.95
0.9917,0.0083	-902.80
0.9734,0.0266	-903.32
0.8699,0.1301	-906.68
0.9726,0.0274	-903.35
0.9716,0.0284	-903.38
0.9242,0.0758	-904.83
0.9922,0.0078	-902.78
0.9692,0.0308	-903.45
0.8623,0.1377	-906.95
0.9751,0.0249	-903.27
0.9690,0.0310	-903.45
0.9361,0.0639	-904.45
0.9908,0.0092	-902.82
0.9681,0.0319	-903.48
0.8844,0.1156	-906.16
0.9761,0.0239	-903.25
0.9693,0.0307	-903.44
0.9297,0.0703	-904.66
0.9906,0.0094	-902.83
0.9642,0.0358	-903.59
0.8954,0.1046	-905.78
0.9775,0.0225	-903.20
0.9758,0.0242	-903.25
0.9298,0.0702	-904.65
0.9916,0.0084	-902.80
0.9667,0.0333	-903.52
0.9042,0.0958	-905.49
0.9777,0.0223	-903.20
0.9759,0.0241	-903.25
0.9268,0.0732	-904.75
0.9917,0.0083	-902.80
0.9709,0.0291	-903.40
0.9145,0.0855	-905.15
0.9783,0.0217	-903.18
0.9754,0.0246	-903.26
0.9275,0.0725	-904.73
0.9878,0.0122	-902.91
0.9783,0.0217	-903.18
0.9234,0.0766	-904.86
0.9819,0.0181	-903.08
0.9745,0.0255	-903.29
0.9371,0.0629	-904.42
0.9855,0.0145	-902.97
0.9754,0.0246	-903.26
0.9170,0.0830	-905.07
0.9747,0.0253	-903.29
0.9716,0.0284	-903.38
0.9371,0.0629	-904.42
0.9855,0.0145	-902.97
0.9758,0.0242	-903.25
0.9171,0.0829	-905.06
0.9686,0.0314	-903.46
0.9719,0.0281	-903.37
0.9430,0.0570	-904.24
0.9844,0.0156	-903.00
0.9737,0.0263	-903.32
0.9299,0.0701	-904.65
0.9687,0.0313	-903.46
0.9727,0.0273	-903.34
0.9513,0.0487	-903.98
0.9854,0.0146	-902.98
0.9615,0.0385	-903.68
0.9240,0.0760	-904.84
0.9716,0.0284	-903.38
0.9719,0.0281	-903.37
0.9460,0.0540	-904.15
0.9856,0.0144	-902.97
0.9624,0.0376	-903.65
0.8994,0.1006	-905.65
0.9792,0.0208	-903.15
0.9777,0.0223	-903.20
0.9279,0.0721	-904.71
0.9828,0.0172	-903.05
0.9602,0.0398	-903.71
0.8918,0.1082	-905.91
0.9756,0.0244	-903.26
0.9780,0.0220	-903.19
0.9249,0.0751	-904.81
0.9843,0.0157	-903.01
0.9675,0.0325	-903.50
0.8966,0.1034	-905.74
0.9801,0.0199	-903.13
0.9836,0.0164	-903.03
0.9177,0.0823	-905.04
0.9850,0.0150	-902.99
0.9658,0.0342	-903.55
0.8961,0.1039	-905.76
0.9811,0.0189	-903.10
0.9825,0.0175	-903.06
0.8961,0.1039	-905.76
0.9827,0.0173	-903.05
0.9615,0.0385	-903.68
0.8984,0.1016	-905.68
0.9799,0.0201	-903.13
0.9788,0.0212	-903.17
0.8724,0.1276	-906.59
0.9781,0.0219	-903.19
0.9566,0.0434	-903.82
0.8860,0.1140	-906.11
0.9815,0.0185	-903.09
0.9808,0.0192	-903.11
0.8767,0.1233	-906.43
0.9792,0.0208	-903.15
0.9498,0.0502	-904.03
0.9040,0.0960	-905.49
0.9804,0.0196	-903.12
0.9781,0.0219	-903.18
0.8816,0.1184	-906.26
0.9793,0.0207	-903.15
0.9511,0.0489	-903.99
0.9105,0.0895	-905.28
0.9762,0.0238	-903.24
0.9774,0.0226	-903.21
0.8777,0.1223	-906.40
0.9761,0.0239	-903.24
0.9518,0.0482	-903.97
0.9098,0.0902	-905.30
0.9737,0.0263	-903.31
0.9738,0.0262	-903.31
0.8867,0.1133	-906.08
0.9722,0.0278	-903.36
0.9504,0.0496	-904.01
0.8941,0.1059	-905.83
0.9748,0.0252	-903.28
0.9765,0.0235	-903.23
0.9045,0.0955	-905.48
0.9666,0.0334	-903.52
0.9621,0.0379	-903.66
0.8627,0.1373	-906.93
0.9739,0.0261	-903.31
0.9777,0.0223	-903.20
0.9023,0.0977	-905.55
0.9649,0.0351	-903.57
0.9578,0.0422	-903.79
0.8727,0.1273	-906.57
0.9820,0.0180	-903.07
0.9776,0.0224	-903.20
0.8979,0.1021	-905.70
0.9694,0.0306	-903.44
0.9531,0.0469	-903.93
0.8823,0.1177	-906.24
0.9785,0.0215	-903.17
0.9767,0.0233	-903.23
0.9044,0.0956	-905.48
0.9667,0.0333	-903.52
0.9562,0.0438	-903.83
0.8706,0.1294	-906.65
0.9844,0.0156	-903.00
0.9773,0.0227	-903.21
0.8759,0.1241	-906.46
0.9638,0.0362	-903.61
0.9620,0.0380	-903.66
0.8837,0.1163	-906.19
0.9812,0.0188	-903.10
0.9788,0.0212	-903.17
0.8795,0.1205	-906.33
0.9560,0.0440	-903.84
0.9520,0.0480	-903.96
0.8688,0.1312	-906.71
0.9844,0.0156	-903.00
0.9795,0.0205	-903.15
0.8712,0.1288	-906.63
0.9571,0.0429	-903.81
0.9456,0.0544	-904.16
0.8438,0.1562	-907.64
0.9833,0.0167	-903.04
0.9820,0.0180	-903.07
0.8903,0.1097	-905.96
0.9478,0.0522	-904.09
0.9371,0.0629	-904.42
0.8676,0.1324	-906.76
0.9810,0.0190	-903.10
0.9844,0.0156	-903.00
0.8707,0.1293	-906.65
0.9503,0.0497	-904.01
0.9346,0.0654	-904.50
0.8443,0.1557	-907.61
0.9848,0.0152	-902.99
0.9844,0.0156	-903.01
0.8833,0.1167	-906.20
0.9454,0.0546	-904.16
0.9199,0.0801	-904.97
0.8232,0.1768	-908.43
0.9812,0.0188	-903.10
0.9839,0.0161	-903.02
0.9100,0.0900	-905.30
0.9517,0.0483	-903.97
0.9325,0.0675	-904.57
0.8200,0.1800	-908.56
0.9881,0.0119	-902.90
0.9846,0.0154	-903.00
0.9058,0.0942	-905.43
0.9497,0.0503	-904.03
0.9401,0.0599	-904.33
0.8213,0.1787	-908.51
0.9884,0.0116	-902.89
0.9869,0.0131	-902.93
0.9148,0.0852	-905.14
0.9478,0.0522	-904.09
0.9380,0.0620	-904.39
0.8321,0.1679	-908.08
0.9900,0.0100	-902.84
0.9843,0.0157	-903.01
0.9296,0.0704	-904.66
0.9551,0.0449	-903.87
0.9468,0.0532	-904.12
0.8311,0.1689	-908.12
0.9929,0.0071	-902.76
0.9838,0.0162	-903.02
0.9380,0.0620	-904.39
0.9580,0.0420	-903.78
0.9403,0.0597	-904.32
0.8382,0.1618	-907.85
0.9923,0.0077	-902.78
0.9852,0.0148	-902.98
0.9427,0.0573	-904.25
0.9526,0.0474	-903.94
0.9507,0.0493	-904.00
0.8510,0.1490	-907.37
0.9915,0.0085	-902.80
0.9860,0.0140	-902.96
0.9514,0.0486	-903.98
0.9458,0.0542	-904.15
0.9555,0.0445	-903.86
0.8641,0.1359	-906.88
0.9907,0.0093	-902.82
0.9857,0.0143	-902.97
0.9585,0.0415	-903.76
0.9615,0.0385	-903.68
0.9679,0.0321	-903.48
0.8911,0.1089	-905.93
0.9892,0.0108	-902.87
0.9851,0.0149	-902.99
0.9587,0.0413	-903.76
0.9606,0.0394	-903.70
0.9708,0.0292	-903.40
0.8715,0.1285	-906.62
0.9926,0.0074	-902.77
0.9798,0.0202	-903.14
0.9521,0.0479	-903.96
0.9697,0.0303	-903.43
0.9709,0.0291	-903.40
0.8704,0.1296	-906.66
0.9925,0.0075	-902.77
0.9765,0.0235	-903.23
0.9334,0.0666	-904.54
0.9593,0.0407	-903.74
0.9749,0.0251	-903.28
0.8854,0.1146	-906.13
0.9917,0.0083	-902.80
0.9738,0.0262	-903.31
0.9400,0.0600	-904.33
0.9516,0.0484	-903.97
0.9795,0.0205	-903.15
0.9087,0.0913	-905.34
0.9902,0.0098	-902.84
0.9738,0.0262	-903.31
0.9503,0.0497	-904.01
0.9620,0.0380	-903.66
0.9806,0.0194	-903.11
0.9267,0.0733	-904.75
0.9903,0.0097	-902.84
0.9782,0.0218	-903.18
0.9540,0.0460	-903.90
0.9649,0.0351	-903.57
0.9767,0.0233	-903.23
0.9358,0.0642	-904.46
0.9913,0.0087	-902.81
0.9785,0.0215	-903.17
0.9588,0.0412	-903.76
0.9622,0.0378	-903.65
0.9721,0.0279	-903.36
0.9390,0.0610	-904.36
0.9898,0.0102	-902.85
0.9750,0.0250	-903.28
0.9422,0.0578	-904.26
0.9668,0.0332	-903.52
0.9667,0.0333	-903.52
0.9418,0.0582	-904.28
0.9881,0.0119	-902.90
0.9673,0.0327	-903.50
0.9400,0.0600	-904.33
0.9660,0.0340	-903.54
0.9662,0.0338	-903.54
0.9351,0.0649	-904.49
0.9875,0.0125	-902.92
0.9625,0.0375	-903.65
0.9341,0.0659	-904.52
0.9702,0.0298	-903.42
0.9686,0.0314	-903.46
0.9369,0.0631	-904.43
0.9842,0.0158	-903.01
0.9674,0.0326	-903.50
0.9295,0.0705	-904.66
0.9582,0.0418	-903.77
0.9746,0.0254	-903.29
0.9386,0.0614	-904.38
0.9856,0.0144	-902.97
0.9690,0.0310	-903.45
0.9548,0.0452	-903.88
0.9412,0.0588	-904.29
0.9744,0.0256	-903.29
0.9356,0.0644	-904.47
0.9886,0.0114	-902.88
0.9680,0.0320	-903.48
0.9559,0.0441	-903.84
0.9437,0.0563	-904.22
0.9749,0.0251	-903.28
0.9144,0.0856	-905.15
0.9879,0.0121	-902.90
0.9768,0.0232	-903.22
0.9492,0.0508	-904.05
0.9450,0.0550	-904.18
0.9664,0.0336	-903.53
0.9073,0.0927	-905.39
0.9870,0.0130	-902.93
0.9749,0.0251	-903.28
0.9409,0.0591	-904.30
0.9572,0.0428	-903.80
0.9691,0.0309	-903.45
0.8867,0.1133	-906.08
0.9853,0.0147	-902.98
0.9747,0.0253	-903.29
0.9391,0.0609	-904.36
0.9566,0.0434	-903.82
0.9691,0.0309	-903.45
0.8934,0.1066	-905.85
0.9824,0.0176	-903.06
0.9748,0.0252	-903.28
0.9428,0.0572	-904.24
0.9530,0.0470	-903.93
0.9750,0.0250	-903.28
0.8799,0.1201	-906.32
0.9805,0.0195	-903.12
0.9794,0.0206	-903.15
0.9539,0.0461	-903.90
0.9505,0.0495	-904.01
0.9724,0.0276	-903.35
0.8666,0.1334	-906.79
0.9833,0.0167	-903.03
0.9771,0.0229	-903.22
0.9480,0.0520	-904.09
0.9618,0.0382	-903.67
0.9759,0.0241	-903.25
0.8747,0.1253	-906.50
0.9816,0.0184	-903.08
0.9778,0.0222	-903.19
0.9427,0.0573	-904.25
0.9572,0.0428	-903.80
0.9715,0.0285	-903.38
0.8563,0.1437	-907.17
0.9821,0.0179	-903.07
0.9811,0.0189	-903.10
0.9492,0.0508	-904.05
0.9608,0.0392	-903.70
0.9765,0.0235	-903.23
0.8730,0.1270	-906.57
0.9807,0.0193	-903.11
0.9783,0.0217	-903.18
0.9485,0.0515	-904.07
0.9675,0.0325	-903.50
0.9776,0.0224	-903.20
0.8843,0.1157	-906.17
0.9814,0.0186	-903.09
0.9814,0.0186	-903.09
0.9543,0.0457	-903.89
0.9654,0.0346	-903.56
0.9780,0.0220	-903.19
0.8911,0.1089	-905.93
0.9826,0.0174	-903.06
0.9815,0.0185	-903.09
0.9598,0.0402	-903.73
0.9593,0.0407	-903.74
0.9722,0.0278	-903.36
0.8681,0.1319	-906.74
0.9858,0.0142	-902.96
0.9778,0.0222	-903.19
0.9641,0.0359	-903.60
0.9573,0.0427	-903.80
0.9717,0.0283	-903.37
0.8682,0.1318	-906.74
0.9851,0.0149	-902.98
0.9740,0.0260	-903.30
0.9625,0.0375	-903.65
0.9648,0.0352	-903.58
0.9748,0.0252	-903.28
0.8653,0.1347	-906.84
0.9847,0.0153	-903.00
0.9782,0.0218	-903.18
0.9575,0.0425	-903.79
0.9522,0.0478	-903.96
0.9735,0.0265	-903.32
0.8812,0.1188	-906.27
0.9829,0.0171	-903.05
0.9823,0.0177	-903.07
0.9587,0.0413	-903.76
0.9503,0.0497	-904.01
0.9733,0.0267	-903.33
0.8775,0.1225	-906.40
0.9831,0.0169	-903.04
0.9828,0.0172	-903.05
0.9596,0.0404	-903.73
0.9433,0.0567	-904.23
0.9737,0.0263	-903.31
0.8937,0.1063	-905.84
0.9801,0.0199	-903.13
0.9867,0.0133	-902.94
0.9601,0.0399	-903.72
0.9528,0.0472	-903.94
0.9702,0.0298	-903.42
0.8852,0.1148	-906.14
0.9843,0.0157	-903.01
0.9892,0.0108	-902.87
0.9569,0.0431	-903.81
0.9521,0.0479	-903.96
0.9743,0.0257	-903.30
0.8629,0.1371	-906.93
0.9814,0.0186	-903.09
0.9891,0.0109	-902.87
0.9540,0.0460	-903.90
0.9565,0.0435	-903.83
0.9768,0.0232	-903.22
0.8658,0.1342	-906.82
0.9846,0.0154	-903.00
0.9916,0.0084	-902.80
0.9487,0.0513	-904.06
0.9472,0.0528	-904.11
0.9745,0.0255	-903.29
0.9026,0.0974	-905.54
0.9864,0.0136	-902.95
0.9917,0.0083	-902.80
0.9611,0.0389	-903.69
0.9493,0.0507	-904.04
0.9766,0.0234	-903.23
0.9089,0.0911	-905.33
0.9858,0.0142	-902.96
0.9902,0.0098	-902.84
0.9592,0.0408	-903.74
0.9560,0.0440	-903.84
0.9735,0.0265	-903.32
0.9113,0.0887	-905.25
0.9858,0.0142	-902.96
0.9920,0.0080	-902.79
0.9555,0.0445	-903.86
0.9512,0.0488	-903.99
0.9734,0.0266	-903.32
0.9278,0.0722	-904.72
0.9874,0.0126	-902.92
0.9922,0.0078	-902.78
0.9461,0.0539	-904.14
0.9658,0.0342	-903.55
0.9749,0.0251	-903.28
0.9420,0.0580	-904.27
0.9871,0.0129	-902.93
0.9918,0.0082	-902.79
0.9570,0.0430	-903.81
0.9650,0.0350	-903.57
0.9706,0.0294	-903.40
0.9282,0.0718	-904.70
0.9877,0.0123	-902.91
0.9917,0.0083	-902.80
0.9671,0.0329	-903.51
0.9592,0.0408	-903.74
0.9771,0.0229	-903.21
0.9448,0.0552	-904.18
0.9882,0.0118	-902.89
0.9924,0.0076	-902.78
0.9707,0.0293	-903.40
0.9582,0.0418	-903.77
0.9739,0.0261	-903.31
0.9552,0.0448	-903.86
0.9883,0.0117	-902.89
0.9930,0.0070	-902.76
0.9693,0.0307	-903.44
0.9615,0.0385	-903.67
0.9812,0.0188	-903.10
0.9415,0.0585	-904.28
0.9870,0.0130	-902.93
0.9926,0.0074	-902.77
0.9649,0.0351	-903.57
0.9697,0.0303	-903.43
0.9790,0.0210	-903.16
0.9346,0.0654	-904.50
0.9880,0.0120	-902.90
0.9925,0.0075	-902.77
0.9608,0.0392	-903.70
0.9734,0.0266	-903.32
0.9814,0.0186	-903.09
0.9329,0.0671	-904.55
0.9909,0.0091	-902.82
0.9914,0.0086	-902.80
0.9560,0.0440	-903.84
0.9722,0.0278	-903.36
0.9816,0.0184	-903.08
0.9448,0.0552	-904.18
0.9904,0.0096	-902.83
0.9918,0.0082	-902.79
0.9613,0.0387	-903.68
0.9731,0.0269	-903.33
0.9844,0.0156	-903.01
0.9556,0.0444	-903.85
0.9904,0.0096	-902.83
0.9913,0.0087	-902.81
0.9554,0.0446	-903.86
0.9712,0.0288	-903.39
0.9829,0.0171	-903.05
0.9510,0.0490	-903.99
0.9902,0.0098	-902.84
0.9925,0.0075	-902.77
0.9631,0.0369	-903.63
0.9763,0.0237	-903.24
0.9805,0.0195	-903.12
0.9424,0.0576	-904.26
0.9899,0.0101	-902.85
0.9914,0.0086	-902.80
0.9633,0.0367	-903.62
0.9783,0.0217	-903.18
0.9798,0.0202	-903.14
0.9343,0.0657	-904.51
0.9901,0.0099	-902.84
0.9895,0.0105	-902.86
0.9639,0.0361	-903.60
0.9802,0.0198	-903.13
0.9706,0.0294	-903.40
0.9487,0.0513	-904.06
0.9913,0.0087	-902.81
0.9904,0.0096	-902.83
0.9610,0.0390	-903.69
0.9827,0.0173	-903.05
0.9790,0.0210	-903.16
0.9553,0.0447	-903.86
0.9905,0.0095	-902.83
0.9890,0.0110	-902.87
0.9594,0.0406	-903.74
0.9817,0.0183	-903.08
0.9756,0.0244	-903.26
0.9571,0.0429	-903.81
0.9905,0.0095	-902.83
0.9889,0.0111	-902.88
0.9527,0.0473	-903.94
0.9787,0.0213	-903.17
0.9758,0.0242	-903.25
0.9567,0.0433	-903.82
0.9886,0.0114	-902.88
0.9847,0.0153	-902.99
0.9571,0.0429	-903.81
0.9785,0.0215	-903.17
0.9773,0.0227	-903.21
0.9542,0.0458	-903.89
0.9846,0.0154	-903.00
0.9841,0.0159	-903.01
0.9588,0.0412	-903.76
0.9817,0.0183	-903.08
0.9810,0.0190	-903.10
0.9548,0.0452	-903.88
0.9817,0.0183	-903.08
0.9842,0.0158	-903.01
0.9524,0.0476	-903.95
0.9858,0.0142	-902.96
0.9870,0.0130	-902.93
0.9391,0.0609	-904.36
0.9757,0.0243	-903.26
0.9862,0.0138	-902.95
0.9528,0.0472	-903.94
0.9816,0.0184	-903.08
0.9863,0.0137	-902.95
0.9342,0.0658	-904.51
0.9747,0.0253	-903.28
0.9822,0.0178	-903.07
0.9477,0.0523	-904.09
0.9811,0.0189	-903.10
0.9847,0.0153	-902.99
0.9369,0.0631	-904.43
0.9792,0.0208	-903.16
0.9813,0.0187	-903.09
0.9488,0.0512	-904.06
0.9772,0.0228	-903.21
0.9842,0.0158	-903.01
0.9519,0.0481	-903.96
0.9790,0.0210	-903.16
0.9784,0.0216	-903.18
0.9385,0.0615	-904.38
0.9783,0.0217	-903.18
0.9872,0.0128	-902.92
0.9497,0.0503	-904.03
0.9747,0.0253	-903.28
0.9726,0.0274	-903.35
0.9381,0.0619	-904.39
0.9760,0.0240	-903.25
0.9849,0.0151	-902.99
0.9498,0.0502	-904.03
0.9794,0.0206	-903.15
0.9618,0.0382	-903.67
0.9406,0.0594	-904.31
0.9785,0.0215	-903.17
0.9837,0.0163	-903.02
0.9568,0.0432	-903.82
0.9816,0.0184	-903.09
0.9588,0.0412	-903.76
0.9495,0.0505	-904.04
0.9750,0.0250	-903.28
0.9846,0.0154	-903.00
0.9557,0.0443	-903.85
0.9796,0.0204	-903.14
0.9497,0.0503	-904.03
0.9439,0.0561	-904.21
0.9783,0.0217	-903.18
0.9831,0.0169	-903.04
0.9521,0.0479	-903.96
0.9795,0.0205	-903.15
0.9406,0.0594	-904.31
0.9330,0.0670	-904.55
0.9805,0.0195	-903.12
0.9806,0.0194	-903.11
0.9534,0.0466	-903.92
0.9794,0.0206	-903.15
0.9393,0.0607	-904.35
0.9367,0.0633	-904.44
0.9832,0.0168	-903.04
0.9832,0.0168	-903.04
0.9647,0.0353	-903.58
0.9863,0.0137	-902.95
0.9437,0.0563	-904.22
0.9430,0.0570	-904.24
0.9853,0.0147	-902.98
0.9832,0.0168	-903.04
0.9632,0.0368	-903.62
0.9902,0.0098	-902.84
0.9343,0.0657	-904.51
0.9415,0.0585	-904.28
0.9800,0.0200	-903.13
0.9833,0.0167	-903.04
0.9630,0.0370	-903.63
0.9922,0.0078	-902.78
0.9308,0.0692	-904.62
0.9495,0.0505	-904.04
0.9825,0.0175	-903.06
0.9824,0.0176	-903.06
0.9683,0.0317	-903.47
0.9926,0.0074	-902.77
0.9281,0.0719	-904.71
0.9410,0.0590	-904.30
0.9840,0.0160	-903.02
0.9842,0.0158	-903.01
0.9746,0.0254	-903.29
0.9898,0.0102	-902.85
0.9268,0.0732	-904.75
0.9585,0.0415	-903.76
0.9821,0.0179	-903.07
0.9809,0.0191	-903.10
0.9682,0.0318	-903.48
0.9926,0.0074	-902.77
0.9437,0.0563	-904.22
0.9622,0.0378	-903.65
0.9814,0.0186	-903.09
0.9805,0.0195	-903.12
0.9629,0.0371	-903.63
0.9923,0.0077	-902.78
0.9378,0.0622	-904.40
0.9673,0.0327	-903.50
0.9811,0.0189	-903.10
0.9815,0.0185	-903.09
0.9640,0.0360	-903.60
0.9932,0.0068	-902.75
0.9285,0.0715	-904.70
0.9670,0.0330	-903.51
0.9806,0.0194	-903.11
0.9773,0.0227	-903.21
0.9643,0.0357	-903.59
0.9936,0.0064	-902.74
0.9166,0.0834	-905.08
0.9709,0.0291	-903.40
0.9775,0.0225	-903.20
0.9799,0.0201	-903.13
0.9612,0.0388	-903.68
0.9924,0.0076	-902.78
0.9250,0.0750	-904.81
0.9739,0.0261	-903.31
0.9826,0.0174	-903.06
0.9819,0.0181	-903.08
0.9513,0.0487	-903.98
0.9915,0.0085	-902.80
0.9238,0.0762	-904.84
0.9716,0.0284	-903.38
0.9821,0.0179	-903.07
0.9800,0.0200	-903.13
0.9512,0.0488	-903.99
0.9913,0.0087	-902.81
0.9286,0.0714	-904.69
0.9656,0.0344	-903.55
0.9848,0.0152	-902.99
0.9776,0.0224	-903.20
0.9515,0.0485	-903.98
0.9911,0.0089	-902.81
0.9373,0.0627	-904.42
0.9636,0.0364	-903.61
0.9874,0.0126	-902.92
0.9787,0.0213	-903.17
0.9576,0.0424	-903.79
0.9903,0.0097	-902.84
0.9225,0.0775	-904.89
0.9606,0.0394	-903.70
0.9883,0.0117	-902.89
0.9739,0.0261	-903.31
0.9470,0.0530	-904.11
0.9898,0.0102	-902.85
0.9284,0.0716	-904.70
0.9598,0.0402	-903.73
0.9866,0.0134	-902.94
0.9778,0.0222	-903.19
0.9473,0.0527	-904.11
0.9906,0.0094	-902.83
0.9371,0.0629	-904.42
0.9509,0.0491	-903.99
0.9866,0.0134	-902.94
0.9785,0.0215	-903.17
0.9444,0.0556	-904.19
0.9892,0.0108	-902.87
0.9258,0.0742	-904.78
0.9399,0.0601	-904.33
0.9801,0.0199	-903.13
0.9770,0.0230	-903.22
0.9446,0.0554	-904.19
0.9862,0.0138	-902.95
0.9399,0.0601	-904.33
0.9332,0.0668	-904.54
0.9802,0.0198	-903.13
0.9742,0.0258	-903.30
0.9486,0.0514	-904.07
0.9859,0.0141	-902.96
0.9294,0.0706	-904.66
0.9391,0.0609	-904.36
0.9823,0.0177	-903.07
0.9782,0.0218	-903.18
0.9381,0.0619	-904.39
0.9864,0.0136	-902.95
0.9232,0.0768	-904.86
0.9411,0.0589	-904.30
0.9849,0.0151	-902.99
0.9782,0.0218	-903.18
0.9231,0.0769	-904.87
0.9881,0.0119	-902.90
0.9080,0.0920	-905.36
0.9433,0.0567	-904.23
0.9841,0.0159	-903.01
0.9835,0.0165	-903.03
0.9050,0.0950	-905.46
0.9892,0.0108	-902.87
0.9004,0.0996	-905.61
0.9472,0.0528	-904.11
0.9861,0.0139	-902.96
0.9829,0.0171	-903.05
0.8949,0.1051	-905.80
0.9918,0.0082	-902.79
0.9233,0.0767	-904.86
0.9462,0.0538	-904.14
0.9856,0.0144	-902.97
0.9824,0.0176	-903.06
0.8962,0.1038	-905.76
0.9891,0.0109	-902.87
0.9331,0.0669	-904.55
0.9503,0.0497	-904.01
0.9840,0.0160	-903.02
0.9824,0.0176	-903.06
0.8730,0.1270	-906.57
0.9873,0.0127	-902.92
0.9280,0.0720	-904.71
0.9550,0.0450	-903.87
0.9850,0.0150	-902.99
0.9828,0.0172	-903.05
0.8656,0.1344	-906.83
0.9856,0.0144	-902.97
0.9278,0.0722	-904.72
0.9555,0.0445	-903.86
0.9862,0.0138	-902.95
0.9814,0.0186	-903.09
0.8663,0.1337	-906.80
0.9848,0.0152	-902.99
0.9348,0.0652	-904.50
0.9476,0.0524	-904.10
0.9888,0.0112	-902.88
0.9826,0.0174	-903.06
0.8648,0.1352	-906.86
0.9851,0.0149	-902.98
0.9352,0.0648	-904.48
0.9431,0.0569	-904.24
0.9886,0.0114	-902.89
0.9786,0.0214	-903.17
0.8517,0.1483	-907.34
0.9864,0.0136	-902.95
0.9454,0.0546	-904.16
0.9427,0.0573	-904.25
0.9901,0.0099	-902.84
0.9783,0.0217	-903.18
0.8419,0.1581	-907.71
0.9864,0.0136	-902.95
0.9500,0.0500	-904.02
0.9310,0.0690	-904.62
0.9867,0.0133	-902.94
0.9811,0.0189	-903.10
0.8444,0.1556	-907.61
0.9850,0.0150	-902.99
0.9396,0.0604	-904.34
0.9347,0.0653	-904.50
0.9878,0.0122	-902.91
0.9747,0.0253	-903.28
0.8476,0.1524	-907.49
0.9863,0.0137	-902.95
0.9239,0.0761	-904.84
0.9349,0.0651	-904.49
0.9910,0.0090	-902.82
0.9713,0.0287	-903.39
0.8446,0.1554	-907.60
0.9837,0.0163	-903.02
0.9173,0.0827	-905.06
0.9429,0.0571	-904.24
0.9904,0.0096	-902.83
0.9758,0.0242	-903.25
0.8183,0.1817	-908.63
0.9828,0.0172	-903.05
0.9378,0.0622	-904.40
0.9341,0.0659	-904.52
0.9884,0.0116	-902.89
0.9826,0.0174	-903.06
0.8236,0.1764	-908.42
0.9848,0.0152	-902.99
0.9409,0.0591	-904.30
0.9438,0.0562	-904.21
0.9898,0.0102	-902.85
0.9779,0.0221	-903.19
0.8578,0.1422	-907.11
0.9863,0.0137	-902.95
0.9410,0.0590	-904.30
0.9380,0.0620	-904.39
0.9895,0.0105	-902.86
0.9770,0.0230	-903.22
0.8603,0.1397	-907.02
0.9863,0.0137	-902.95
0.9478,0.0522	-904.09
0.9356,0.0644	-904.47
0.9865,0.0135	-902.95
0.9763,0.0237	-903.24
0.9083,0.0917	-905.35
0.9871,0.0129	-902.93
0.9527,0.0473	-903.94
0.9471,0.0529	-904.11
0.9832,0.0168	-903.04
0.9724,0.0276	-903.35
0.9097,0.0903	-905.31
0.9875,0.0125	-902.91
0.9518,0.0482	-903.97
0.9620,0.0380	-903.66
0.9842,0.0158	-903.01
0.9760,0.0240	-903.25
0.9148,0.0852	-905.14
0.9853,0.0147	-902.98
0.9549,0.0451	-903.87
0.9654,0.0346	-903.56
0.9813,0.0187	-903.09
0.9667,0.0333	-903.52
0.9154,0.0846	-905.12
0.9821,0.0179	-903.07
0.9595,0.0405	-903.74
0.9644,0.0356	-903.59
0.9847,0.0153	-902.99
0.9579,0.0421	-903.78
0.9129,0.0871	-905.20
0.9787,0.0213	-903.17
0.9701,0.0299	-903.42
0.9651,0.0349	-903.57
0.9874,0.0126	-902.92
0.9560,0.0440	-903.84
0.9284,0.0716	-904.70
0.9793,0.0207	-903.15
0.9690,0.0310	-903.45
0.9573,0.0427	-903.80
0.9894,0.0106	-902.86
0.9495,0.0505	-904.04
0.9297,0.0703	-904.66
0.9798,0.0202	-903.14
0.9585,0.0415	-903.76
0.9564,0.0436	-903.83
0.9898,0.0102	-902.85
0.9486,0.0514	-904.07
0.9321,0.0679	-904.58
0.9740,0.0260	-903.31
0.9540,0.0460	-903.90
0.9583,0.0417	-903.77
0.9890,0.0110	-902.87
0.9401,0.0599	-904.33
0.9505,0.0495	-904.01
0.9746,0.0254	-903.29
0.9504,0.0496	-904.01
0.9530,0.0470	-903.93
0.9906,0.0094	-902.83
0.9463,0.0537	-904.14
0.9498,0.0502	-904.03
0.9764,0.0236	-903.24
0.9484,0.0516	-904.07
0.9626,0.0374	-903.64
0.9889,0.0111	-902.88
0.9459,0.0541	-904.15
0.9593,0.0407	-903.74
0.9799,0.0201	-903.13
0.9498,0.0502	-904.03
0.9621,0.0379	-903.66
0.9908,0.0092	-902.82
0.9411,0.0589	-904.30
0.9602,0.0398	-903.71
0.9802,0.0198	-903.12
0.9508,0.0492	-904.00
0.9657,0.0343	-903.55
0.9869,0.0131	-902.93
0.9420,0.0580	-904.27
0.9573,0.0427	-903.80
0.9804,0.0196	-903.12
0.9452,0.0548	-904.17
0.9658,0.0342	-903.55
0.9861,0.0139	-902.96
0.9311,0.0689	-904.61
0.9493,0.0507	-904.04
0.9750,0.0250	-903.28
0.9502,0.0498	-904.02
0.9661,0.0339	-903.54
0.9890,0.0110	-902.87
0.9120,0.0880	-905.23
0.9450,0.0550	-904.18
0.9762,0.0238	-903.24
0.9570,0.0430	-903.81
0.9550,0.0450	-903.87
0.9896,0.0104	-902.85
0.9114,0.0886	-905.25
0.9519,0.0481	-903.97
0.9747,0.0253	-903.29
0.9664,0.0336	-903.53
0.9553,0.0447	-903.86
0.9870,0.0130	-902.93
0.9012,0.0988	-905.59
0.9561,0.0439	-903.84
0.9724,0.0276	-903.35
0.9684,0.0316	-903.47
0.9552,0.0448	-903.86
0.9865,0.0135	-902.94
0.9043,0.0957	-905.49
0.9466,0.0534	-904.13
0.9679,0.0321	-903.48
0.9599,0.0401	-903.72
0.9565,0.0435	-903.83
0.9880,0.0120	-902.90
0.9022,0.0978	-905.56
0.9423,0.0577	-904.26
0.9639,0.0361	-903.60
0.9601,0.0399	-903.72
0.9550,0.0450	-903.87
0.9860,0.0140	-902.96
0.9114,0.0886	-905.25
0.9483,0.0517	-904.07
0.9586,0.0414	-903.76
0.9569,0.0431	-903.81
0.9526,0.0474	-903.94
0.9846,0.0154	-903.00
0.8999,0.1001	-905.63
0.9444,0.0556	-904.19
0.9588,0.0412	-903.76
0.9547,0.0453	-903.88
0.9560,0.0440	-903.84
0.9869,0.0131	-902.93
0.8982,0.1018	-905.69
0.9452,0.0548	-904.17
0.9673,0.0327	-903.50
0.9496,0.0504	-904.04
0.9611,0.0389	-903.69
0.9847,0.0153	-902.99
0.9092,0.0908	-905.32
0.9492,0.0508	-904.05
0.9662,0.0338	-903.54
0.9489,0.0511	-904.06
0.9665,0.0335	-903.53
0.9843,0.0157	-903.01
0.9171,0.0829	-905.06
0.9524,0.0476	-903.95
0.9701,0.0299	-903.42
0.9498,0.0502	-904.03
0.9662,0.0338	-903.53
0.9845,0.0155	-903.00
0.9209,0.0791	-904.94
0.9533,0.0467	-903.92
0.9679,0.0321	-903.49
0.9463,0.0537	-904.14
0.9668,0.0332	-903.52
0.9852,0.0148	-902.98
0.9295,0.0705	-904.66
0.9459,0.0541	-904.15
0.9698,0.0302	-903.43
0.9545,0.0455	-903.89
0.9672,0.0328	-903.50
0.9836,0.0164	-903.03
0.9462,0.0538	-904.14
0.9560,0.0440	-903.84
0.9747,0.0253	-903.28
0.9566,0.0434	-903.82
0.9673,0.0327	-903.50
0.9829,0.0171	-903.05
0.9401,0.0599	-904.33
0.9544,0.0456	-903.89
0.9740,0.0260	-903.31
0.9557,0.0443	-903.85
0.9626,0.0374	-903.64
0.9834,0.0166	-903.03
0.9312,0.0688	-904.61
0.9556,0.0444	-903.85
0.9747,0.0253	-903.28
0.9591,0.0409	-903.75
0.9579,0.0421	-903.78
0.9826,0.0174	-903.06
0.9386,0.0614	-904.38
0.9351,0.0649	-904.49
0.9803,0.0197	-903.12
0.9606,0.0394	-903.70
0.9540,0.0460	-903.90
0.9773,0.0227	-903.21
0.9197,0.0803	-904.98
0.9353,0.0647	-904.48
0.9786,0.0214	-903.17
0.9647,0.0353	-903.58
0.9495,0.0505	-904.04
0.9766,0.0234	-903.23
0.9048,0.0952	-905.47
0.9367,0.0633	-904.43
0.9791,0.0209	-903.16
0.9587,0.0413	-903.76
0.9522,0.0478	-903.96
0.9771,0.0229	-903.22
0.9254,0.0746	-904.79
0.9298,0.0702	-904.65
0.9782,0.0218	-903.18
0.9653,0.0347	-903.56
0.9527,0.0473	-903.94
0.9754,0.0246	-903.26
0.9572,0.0428	-903.81
0.9300,0.0700	-904.65
0.9744,0.0256	-903.29
0.9741,0.0259	-903.30
0.9449,0.0551	-904.18
0.9846,0.0154	-903.00
0.9590,0.0410	-903.75
0.9378,0.0622	-904.40
0.9782,0.0218	-903.18
0.9678,0.0322	-903.49
0.9524,0.0476	-903.95
0.9835,0.0165	-903.03
0.9614,0.0386	-903.68
0.9302,0.0698	-904.64
0.9791,0.0209	-903.16
0.9725,0.0275	-903.35
0.9490,0.0510	-904.05
0.9874,0.0126	-902.92
0.9564,0.0436	-903.83
0.9343,0.0657	-904.51
0.9794,0.0206	-903.15
0.9716,0.0284	-903.38
0.9423,0.0577	-904.26
0.9874,0.0126	-902.92
0.9573,0.0427	-903.80
0.9272,0.0728	-904.74
0.9774,0.0226	-903.21
0.9773,0.0227	-903.21
0.9493,0.0507	-904.05
0.9820,0.0180	-903.07
0.9623,0.0377	-903.65
0.9234,0.0766	-904.86
0.9721,0.0279	-903.36
0.9785,0.0215	-903.17
0.9471,0.0529	-904.11
0.9818,0.0182	-903.08
0.9627,0.0373	-903.64
0.9254,0.0746	-904.79
0.9665,0.0335	-903.53
0.9797,0.0203	-903.14
0.9458,0.0542	-904.15
0.9828,0.0172	-903.05
0.9619,0.0381	-903.66
0.9130,0.0870	-905.20
0.9687,0.0313	-903.46
0.9754,0.0246	-903.26
0.9501,0.0499	-904.02
0.9788,0.0212	-903.16
0.9505,0.0495	-904.01
0.9249,0.0751	-904.81
0.9718,0.0282	-903.37
0.9772,0.0228	-903.21
0.9369,0.0631	-904.43
0.9773,0.0227	-903.21
0.9451,0.0549	-904.17
0.9292,0.0708	-904.67
0.9733,0.0267	-903.33
0.9778,0.0222	-903.19
0.9372,0.0628	-904.42
0.9785,0.0215	-903.17
0.9515,0.0485	-903.98
0.9176,0.0824	-905.05
0.9742,0.0258	-903.30
0.9789,0.0211	-903.16
0.9342,0.0658	-904.51
0.9778,0.0222	-903.19
0.9575,0.0425	-903.80
0.9148,0.0852	-905.14
0.9764,0.0236	-903.24
0.9836,0.0164	-903.03
0.9488,0.0512	-904.06
0.9774,0.0226	-903.21
0.9553,0.0447	-903.86
0.9179,0.0821	-905.04
0.9756,0.0244	-903.26
0.9839,0.0161	-903.02
0.9493,0.0507	-904.05
0.9746,0.0254	-903.29
0.9724,0.0276	-903.35
0.9235,0.0765	-904.86
0.9785,0.0215	-903.17
0.9839,0.0161	-903.02
0.9526,0.0474	-903.94
0.9764,0.0236	-903.24
0.9689,0.0311	-903.46
0.9229,0.0771	-904.87
0.9731,0.0269	-903.33
0.9838,0.0162	-903.02
0.9548,0.0452	-903.88
0.9740,0.0260	-903.31
0.9601,0.0399	-903.72
0.9230,0.0770	-904.87
0.9710,0.0290	-903.39
0.9841,0.0159	-903.01
0.9578,0.0422	-903.79
0.9784,0.0216	-903.18
0.9623,0.0377	-903.65
0.9209,0.0791	-904.94
0.9742,0.0258	-903.30
0.9820,0.0180	-903.07
0.9585,0.0415	-903.77
0.9778,0.0222	-903.19
0.9670,0.0330	-903.51
0.9333,0.0667	-904.54
0.9773,0.0227	-903.21
0.9849,0.0151	-902.99
0.9653,0.0347	-903.56
0.9774,0.0226	-903.21
0.9669,0.0331	-903.51
0.9247,0.0753	-904.82
0.9831,0.0169	-903.04
0.9838,0.0162	-903.02
0.9623,0.0377	-903.65
0.9737,0.0263	-903.31
0.9717,0.0283	-903.37
0.9355,0.0645	-904.47
0.9835,0.0165	-903.03
0.9804,0.0196	-903.12
0.9646,0.0354	-903.58
0.9799,0.0201	-903.13
0.9696,0.0304	-903.44
0.9404,0.0596	-904.32
0.9777,0.0223	-903.20
0.9831,0.0169	-903.04
0.9676,0.0324	-903.49
0.9824,0.0176	-903.06
0.9750,0.0250	-903.28
0.9291,0.0709	-904.68
0.9752,0.0248	-903.27
0.9778,0.0222	-903.19
0.9652,0.0348	-903.57
0.9809,0.0191	-903.11
0.9772,0.0228	-903.21
0.9326,0.0674	-904.57
0.9739,0.0261	-903.31
0.9788,0.0212	-903.16
0.9594,0.0406	-903.74
0.9806,0.0194	-903.11
0.9778,0.0222	-903.19
0.9249,0.0751	-904.81
0.9753,0.0247	-903.27
0.9802,0.0198	-903.12
0.9603,0.0397	-903.71
0.9820,0.0180	-903.07
0.9821,0.0179	-903.07
0.9272,0.0728	-904.74
0.9783,0.0217	-903.18
0.9713,0.0287	-903.38
0.9573,0.0427	-903.80
0.9803,0.0197	-903.12
0.9834,0.0166	-903.03
0.9314,0.0686	-904.60
0.9755,0.0245	-903.26
0.9666,0.0334	-903.52
0.9591,0.0409	-903.75
0.9795,0.0205	-903.14
0.9873,0.0127	-902.92
0.9143,0.0857	-905.15
0.9744,0.0256	-903.29
0.9570,0.0430	-903.81
0.9578,0.0422	-903.79
0.9716,0.0284	-903.37
0.9863,0.0137	-902.95
0.9099,0.0901	-905.30
0.9756,0.0244	-903.26
0.9497,0.0503	-904.03
0.9627,0.0373	-903.64
0.9715,0.0285	-903.38
0.9856,0.0144	-902.97
0.9315,0.0685	-904.60
0.9669,0.0331	-903.51
0.9391,0.0609	-904.36
0.9602,0.0398	-903.71
0.9699,0.0301	-903.43
0.9862,0.0138	-902.95
0.9353,0.0647	-904.48
0.9775,0.0225	-903.20
0.9451,0.0549	-904.17
0.9622,0.0378	-903.65
0.9691,0.0309	-903.45
0.9862,0.0138	-902.95
0.9308,0.0692	-904.62
0.9755,0.0245	-903.26
0.9438,0.0562	-904.21
0.9780,0.0220	-903.19
0.9679,0.0321	-903.49
0.9867,0.0133	-902.94
0.9434,0.0566	-904.23
0.9774,0.0226	-903.21
0.9483,0.0517	-904.07
0.9800,0.0200	-903.13
0.9653,0.0347	-903.56
0.9869,0.0131	-902.93
0.9382,0.0618	-904.39
0.9821,0.0179	-903.07
0.9507,0.0493	-904.00
0.9786,0.0214	-903.17
0.9611,0.0389	-903.69
0.9878,0.0122	-902.91
0.9410,0.0590	-904.30
0.9798,0.0202	-903.14
0.9431,0.0569	-904.24
0.9802,0.0198	-903.12
0.9654,0.0346	-903.56
0.9883,0.0117	-902.89
0.9055,0.0945	-905.44
0.9825,0.0175	-903.06
0.9544,0.0456	-903.89
0.9823,0.0177	-903.06
0.9680,0.0320	-903.48
0.9883,0.0117	-902.89
0.9166,0.0834	-905.08
0.9803,0.0197	-903.12
0.9360,0.0640	-904.46
0.9797,0.0203	-903.14
0.9646,0.0354	-903.58
0.9880,0.0120	-902.90
0.9125,0.0875	-905.21
0.9746,0.0254	-903.29
0.9253,0.0747	-904.80
0.9802,0.0198	-903.12
0.9698,0.0302	-903.43
0.9890,0.0110	-902.87
0.9113,0.0887	-905.25
0.9759,0.0241	-903.25
0.9211,0.0789	-904.93
0.9835,0.0165	-903.03
0.9730,0.0270	-903.33
0.9860,0.0140	-902.96
0.9134,0.0866	-905.18
0.9732,0.0268	-903.33
0.9284,0.0716	-904.70
0.9826,0.0174	-903.06
0.9735,0.0265	-903.32
0.9822,0.0178	-903.07
0.9138,0.0862	-905.17
0.9763,0.0237	-903.24
0.9198,0.0802	-904.97
0.9854,0.0146	-902.98
0.9769,0.0231	-903.22
0.9877,0.0123	-902.91
0.9221,0.0779	-904.90
0.9762,0.0238	-903.24
0.9135,0.0865	-905.18
0.9845,0.0155	-903.00
0.9766,0.0234	-903.23
0.9904,0.0096	-902.83
0.9310,0.0690	-904.61
0.9759,0.0241	-903.25
0.8978,0.1022	-905.70
0.9856,0.0144	-902.97
0.9763,0.0237	-903.24
0.9900,0.0100	-902.84
0.9357,0.0643	-904.47
0.9715,0.0285	-903.38
0.8985,0.1015	-905.68
0.9884,0.0116	-902.89
0.9758,0.0242	-903.25
0.9888,0.0112	-902.88
0.9470,0.0530	-904.12
0.9727,0.0273	-903.34
0.9104,0.0896	-905.28
0.9912,0.0088	-902.81
0.9739,0.0261	-903.31
0.9903,0.0097	-902.84
0.9441,0.0559	-904.20
0.9729,0.0271	-903.34
0.9007,0.0993	-905.61
0.9933,0.0067	-902.75
0.9768,0.0232	-903.22
0.9919,0.0081	-902.79
0.9574,0.0426	-903.80
0.9722,0.0278	-903.36
0.9233,0.0767	-904.86
0.9920,0.0080	-902.79
0.9756,0.0244	-903.26
0.9919,0.0081	-902.79
0.9553,0.0447	-903.86
0.9715,0.0285	-903.38
0.9089,0.0911	-905.33
0.9931,0.0069	-902.76
0.9761,0.0239	-903.24
0.9919,0.0081	-902.79
0.9514,0.0486	-903.98
0.9724,0.0276	-903.35
0.9198,0.0802	-904.97
0.9922,0.0078	-902.78
0.9763,0.0237	-903.24
0.9929,0.0071	-902.76
0.9587,0.0413	-903.76
0.9710,0.0290	-903.39
0.9257,0.0743	-904.78
0.9931,0.0069	-902.76
0.9814,0.0186	-903.09
0.9907,0.0093	-902.82
0.9521,0.0479	-903.96
0.9744,0.0256	-903.29
0.9082,0.0918	-905.35
0.9931,0.0069	-902.76
0.9844,0.0156	-903.01
0.9894,0.0106	-902.86
0.9517,0.0483	-903.97
0.9753,0.0247	-903.27
0.9155,0.0845	-905.12
0.9933,0.0067	-902.75
0.9848,0.0152	-902.99
0.9864,0.0136	-902.95
0.9601,0.0399	-903.72
0.9709,0.0291	-903.40
0.9264,0.0736	-904.76
0.9912,0.0088	-902.81
0.9809,0.0191	-903.11
0.9865,0.0135	-902.94
0.9639,0.0361	-903.60
0.9753,0.0247	-903.27
0.9239,0.0761	-904.84
0.9923,0.0077	-902.78
0.9787,0.0213	-903.17
0.9833,0.0167	-903.04
0.9656,0.0344	-903.55
0.9678,0.0322	-903.49
0.9352,0.0648	-904.48
0.9934,0.0066	-902.75
0.9775,0.0225	-903.20
0.9835,0.0165	-903.03
0.9724,0.0276	-903.35
0.9665,0.0335	-903.53
0.9401,0.0599	-904.33
0.9944,0.0056	-902.72
0.9757,0.0243	-903.26
0.9816,0.0184	-903.09
0.9752,0.0248	-903.27
0.9689,0.0311	-903.45
0.9353,0.0647	-904.48
0.9948,0.0052	-902.71
0.9770,0.0230	-903.22
0.9792,0.0208	-903.15
0.9756,0.0244	-903.26
0.9694,0.0306	-903.44
0.9226,0.0774	-904.88
0.9958,0.0042	-902.68
0.9786,0.0214	-903.17
0.9789,0.0211	-903.16
0.9744,0.0256	-903.29
0.9660,0.0340	-903.54
0.9322,0.0678	-904.58
0.9959,0.0041	-902.68
0.9835,0.0165	-903.03
0.9730,0.0270	-903.34
0.9792,0.0208	-903.15
0.9665,0.0335	-903.53
0.9202,0.0798	-904.96
0.9968,0.0032	-902.65
0.9816,0.0184	-903.09
0.9759,0.0241	-903.25
0.9785,0.0215	-903.17
0.9653,0.0347	-903.56
0.9234,0.0766	-904.86
0.9973,0.0027	-902.64
0.9792,0.0208	-903.16
0.9805,0.0195	-903.12
0.9748,0.0252	-903.28
0.9642,0.0358	-903.60
0.9278,0.0722	-904.72
0.9974,0.0026	-902.64
0.9770,0.0230	-903.22
0.9783,0.0217	-903.18
0.9808,0.0192	-903.11
0.9626,0.0374	-903.64
0.9293,0.0707	-904.67
0.9973,0.0027	-902.64
0.9785,0.0215	-903.17
0.9736,0.0264	-903.32
0.9837,0.0163	-903.02
0.9675,0.0325	-903.50
0.9301,0.0699	-904.64
0.9973,0.0027	-902.64
0.9726,0.0274	-903.35
0.9738,0.0262	-903.31
0.9834,0.0166	-903.03
0.9697,0.0303	-903.43
0.9307,0.0693	-904.62
0.9970,0.0030	-902.65
0.9708,0.0292	-903.40
0.9745,0.0255	-903.29
0.9866,0.0134	-902.94
0.9644,0.0356	-903.59
0.9320,0.0680	-904.58
0.9960,0.0040	-902.68
0.9734,0.0266	-903.32
0.9758,0.0242	-903.25
0.9847,0.0153	-903.00
0.9539,0.0461	-903.91
0.9178,0.0822	-905.04
0.9965,0.0035	-902.66
0.9764,0.0236	-903.24
0.9778,0.0222	-903.20
0.9817,0.0183	-903.08
0.9459,0.0541	-904.15
0.9347,0.0653	-904.50
0.9962,0.0038	-902.67
0.9734,0.0266	-903.32
0.9754,0.0246	-903.26
0.9828,0.0172	-903.05
0.9349,0.0651	-904.49
0.9280,0.0720	-904.71
0.9956,0.0044	-902.69
0.9685,0.0315	-903.47
0.9674,0.0326	-903.50
0.9796,0.0204	-903.14
0.9396,0.0604	-904.34
0.9422,0.0578	-904.26
0.9966,0.0034	-902.66
0.9584,0.0416	-903.77
0.9703,0.0297	-903.42
0.9797,0.0203	-903.14
0.9445,0.0555	-904.19
0.9326,0.0674	-904.56
0.9965,0.0035	-902.66
0.9597,0.0403	-903.73
0.9720,0.0280	-903.37
0.9758,0.0242	-903.25
0.9364,0.0636	-904.44
0.9375,0.0625	-904.41
0.9970,0.0030	-902.65
0.9481,0.0519	-904.08
0.9670,0.0330	-903.51
0.9793,0.0207	-903.15
0.9480,0.0520	-904.09
0.9383,0.0617	-904.38
0.9976,0.0024	-902.63
0.9491,0.0509	-904.05
0.9676,0.0324	-903.49
0.9792,0.0208	-903.15
0.9505,0.0495	-904.01
0.9484,0.0516	-904.07
0.9979,0.0021	-902.62
0.9543,0.0457	-903.89
0.9749,0.0251	-903.28
0.9819,0.0181	-903.08
0.9482,0.0518	-904.08
0.9489,0.0511	-904.06
0.9974,0.0026	-902.64
0.9466,0.0534	-904.13
0.9759,0.0241	-903.25
0.9800,0.0200	-903.13
0.9495,0.0505	-904.04
0.9533,0.0467	-903.92
0.9973,0.0027	-902.64
0.9481,0.0519	-904.08
0.9775,0.0225	-903.20
0.9784,0.0216	-903.18
0.9498,0.0502	-904.03
0.9450,0.0550	-904.18
0.9968,0.0032	-902.65
0.9573,0.0427	-903.80
0.9756,0.0244	-903.26
0.9779,0.0221	-903.19
0.9495,0.0505	-904.04
0.9484,0.0516	-904.07
0.9971,0.0029	-902.64
0.9512,0.0488	-903.99
0.9851,0.0149	-902.98
0.9783,0.0217	-903.18
0.9485,0.0515	-904.07
0.9455,0.0545	-904.16
0.9968,0.0032	-902.65
0.9489,0.0511	-904.06
0.9862,0.0138	-902.95
0.9746,0.0254	-903.29
0.9453,0.0547	-904.17
0.9538,0.0462	-903.91
0.9967,0.0033	-902.66
0.9548,0.0452	-903.88
0.9884,0.0116	-902.89
0.9768,0.0232	-903.22
0.9356,0.0644	-904.47
0.9513,0.0487	-903.98
0.9961,0.0039	-902.67
0.9539,0.0461	-903.90
0.9871,0.0129	-902.93
0.9813,0.0187	-903.09
0.9248,0.0752	-904.81
0.9579,0.0421	-903.78
0.9962,0.0038	-902.67
0.9489,0.0511	-904.06
0.9853,0.0147	-902.98
0.9800,0.0200	-903.13
0.9203,0.0797	-904.96
0.9564,0.0436	-903.83
0.9963,0.0037	-902.67
0.9497,0.0503	-904.03
0.9838,0.0162	-903.02
0.9736,0.0264	-903.32
0.9002,0.0998	-905.62
0.9410,0.0590	-904.30
0.9966,0.0034	-902.66
0.9401,0.0599	-904.33
0.9807,0.0193	-903.11
0.9768,0.0232	-903.22
0.8859,0.1141	-906.11
0.9365,0.0635	-904.44
0.9973,0.0027	-902.64
0.9268,0.0732	-904.75
0.9788,0.0212	-903.17
0.9781,0.0219	-903.19
0.8769,0.1231	-906.42
0.9471,0.0529	-904.11
0.9972,0.0028	-902.64
0.9280,0.0720	-904.71
0.9808,0.0192	-903.11
0.9826,0.0174	-903.06
0.9099,0.0901	-905.30
0.9477,0.0523	-904.09
0.9968,0.0032	-902.65
0.9184,0.0816	-905.02
0.9771,0.0229	-903.21
0.9815,0.0185	-903.09
0.9103,0.0897	-905.28
0.9497,0.0503	-904.03
0.9967,0.0033	-902.66
0.9170,0.0830	-905.07
0.9764,0.0236	-903.24
0.9796,0.0204	-903.14
0.9138,0.0862	-905.17
0.9530,0.0470	-903.93
0.9967,0.0033	-902.65
0.9132,0.0868	-905.19
0.9807,0.0193	-903.11
0.9773,0.0227	-903.21
0.9178,0.0822	-905.04
0.9581,0.0419	-903.78
0.9962,0.0038	-902.67
0.9127,0.0873	-905.21
0.9823,0.0177	-903.06
0.9778,0.0222	-903.19
0.9341,0.0659	-904.52
0.9520,0.0480	-903.96
0.9964,0.0036	-902.66
0.9215,0.0785	-904.92
0.9858,0.0142	-902.96
0.9703,0.0297	-903.41
0.9414,0.0586	-904.29
0.9644,0.0356	-903.59
0.9963,0.0037	-902.67
0.9328,0.0672	-904.56
0.9833,0.0167	-903.03
0.9693,0.0307	-903.44
0.9372,0.0628	-904.42
0.9741,0.0259	-903.30
0.9970,0.0030	-902.65
0.9385,0.0615	-904.38
0.9854,0.0146	-902.97
0.9640,0.0360	-903.60
0.9352,0.0648	-904.48
0.9755,0.0245	-903.26
0.9965,0.0035	-902.66
0.9299,0.0701	-904.65
0.9865,0.0135	-902.94
0.9649,0.0351	-903.57
0.9268,0.0732	-904.75
0.9719,0.0281	-903.37
0.9962,0.0038	-902.67
0.9378,0.0622	-904.40
0.9833,0.0167	-903.03
0.9666,0.0334	-903.52
0.9327,0.0673	-904.56
0.9698,0.0302	-903.43
0.9961,0.0039	-902.67
0.9435,0.0565	-904.22
0.9824,0.0176	-903.06
0.9582,0.0418	-903.78
0.9368,0.0632	-904.43
0.9627,0.0373	-903.64
0.9953,0.0047	-902.69
0.9463,0.0537	-904.14
0.9798,0.0202	-903.14
0.9496,0.0504	-904.04
0.9385,0.0615	-904.38
0.9622,0.0378	-903.65
0.9962,0.0038	-902.67
0.9430,0.0570	-904.24
0.9803,0.0197	-903.12
0.9541,0.0459	-903.90
0.9370,0.0630	-904.43
0.9623,0.0377	-903.65
0.9961,0.0039	-902.67
0.9561,0.0439	-903.84
0.9843,0.0157	-903.01
0.9538,0.0462	-903.91
0.9366,0.0634	-904.44
0.9631,0.0369	-903.63
0.9967,0.0033	-902.66
0.9589,0.0411	-903.75
0.9843,0.0157	-903.01
0.9477,0.0523	-904.09
0.9317,0.0683	-904.59
0.9598,0.0402	-903.73
0.9963,0.0037	-902.67
0.9492,0.0508	-904.05
0.9889,0.0111	-902.88
0.9306,0.0694	-904.63
0.9405,0.0595	-904.32
0.9548,0.0452	-903.88
0.9962,0.0038	-902.67
0.9465,0.0535	-904.13
0.9888,0.0112	-902.88
0.9395,0.0605	-904.35
0.9486,0.0514	-904.07
0.9569,0.0431	-903.81
0.9961,0.0039	-902.67
0.9448,0.0552	-904.18
0.9920,0.0080	-902.79
0.9377,0.0623	-904.40
0.9531,0.0469	-903.93
0.9574,0.0426	-903.80
0.9962,0.0038	-902.67
0.9385,0.0615	-904.38
0.9898,0.0102	-902.85
0.9309,0.0691	-904.62
0.9581,0.0419	-903.78
0.9445,0.0555	-904.19
0.9955,0.0045	-902.69
0.9439,0.0561	-904.21
0.9906,0.0094	-902.83
0.9404,0.0596	-904.32
0.9550,0.0450	-903.87
0.9301,0.0699	-904.64
0.9954,0.0046	-902.69
0.9372,0.0628	-904.42
0.9912,0.0088	-902.81
0.9367,0.0633	-904.43
0.9496,0.0504	-904.03
0.9354,0.0646	-904.48
0.9946,0.0054	-902.71
0.9313,0.0687	-904.61
0.9922,0.0078	-902.78
0.9375,0.0625	-904.41
0.9465,0.0535	-904.13
0.9426,0.0574	-904.25
0.9961,0.0039	-902.67
0.9486,0.0514	-904.06
0.9938,0.0062	-902.74
0.9308,0.0692	-904.62
0.9447,0.0553	-904.19
0.9288,0.0712	-904.69
0.9958,0.0042	-902.68
0.9512,0.0488	-903.99
0.9942,0.0058	-902.73
0.9231,0.0769	-904.87
0.9466,0.0534	-904.13
0.9494,0.0506	-904.04
0.9960,0.0040	-902.68
0.9480,0.0520	-904.08
0.9934,0.0066	-902.75
0.9103,0.0897	-905.28
0.9496,0.0504	-904.04
0.9433,0.0567	-904.23
0.9970,0.0030	-902.65
0.9512,0.0488	-903.99
0.9908,0.0092	-902.82
0.9031,0.0969	-905.52
0.9567,0.0433	-903.82
0.9398,0.0602	-904.34
0.9970,0.0030	-902.65
0.9551,0.0449	-903.87
0.9929,0.0071	-902.76
0.9202,0.0798	-904.96
0.9491,0.0509	-904.05
0.9347,0.0653	-904.50
0.9969,0.0031	-902.65
0.9519,0.0481	-903.97
0.9927,0.0073	-902.77
0.9087,0.0913	-905.34
0.9329,0.0671	-904.56
0.9408,0.0592	-904.31
0.9969,0.0031	-902.65
0.9606,0.0394	-903.70
0.9925,0.0075	-902.77
0.8931,0.1069	-905.86
0.9176,0.0824	-905.04
0.9379,0.0621	-904.40
0.9964,0.0036	-902.66
0.9553,0.0447	-903.86
0.9902,0.0098	-902.84
0.9027,0.0973	-905.54
0.9077,0.0923	-905.37
0.9520,0.0480	-903.96
0.9956,0.0044	-902.68
0.9472,0.0528	-904.11
0.9899,0.0101	-902.85
0.9020,0.0980	-905.56
0.9291,0.0709	-904.67
0.9564,0.0436	-903.83
0.9949,0.0051	-902.71
0.9471,0.0529	-904.11
0.9894,0.0106	-902.86
0.9005,0.0995	-905.61
0.9200,0.0800	-904.97
0.9525,0.0475	-903.95
0.9952,0.0048	-902.70
0.9461,0.0539	-904.14
0.9861,0.0139	-902.96
0.9165,0.0835	-905.08
0.9325,0.0675	-904.57
0.9500,0.0500	-904.02
0.9960,0.0040	-902.68
0.9381,0.0619	-904.39
0.9821,0.0179	-903.07
0.9243,0.0757	-904.83
0.9324,0.0676	-904.57
0.9558,0.0442	-903.85
0.9958,0.0042	-902.68
0.9316,0.0684	-904.59
0.9775,0.0225	-903.20
0.9322,0.0678	-904.58
0.9424,0.0576	-904.26
0.9553,0.0447	-903.86
0.9960,0.0040	-902.67
0.9402,0.0598	-904.32
0.9777,0.0223	-903.20
0.9325,0.0675	-904.57
0.9503,0.0497	-904.01
0.9562,0.0438	-903.84
0.9950,0.0050	-902.70
0.9510,0.0490	-903.99
0.9837,0.0163	-903.02
0.9244,0.0756	-904.83
0.9578,0.0422	-903.79
0.9448,0.0552	-904.18
0.9946,0.0054	-902.71
0.9543,0.0457	-903.89
0.9850,0.0150	-902.99
0.9309,0.0691	-904.62
0.9548,0.0452	-903.88
0.9475,0.0525	-904.10
0.9940,0.0060	-902.73
0.9552,0.0448	-903.86
0.9828,0.0172	-903.05
0.9242,0.0758	-904.83
0.9543,0.0457	-903.89
0.9420,0.0580	-904.27
0.9949,0.0051	-902.71
0.9666,0.0334	-903.52
0.9830,0.0170	-903.04
0.9242,0.0758	-904.83
0.9575,0.0425	-903.79
0.9289,0.0711	-904.68
0.9947,0.0053	-902.71
0.9633,0.0367	-903.62
0.9832,0.0168	-903.04
0.9269,0.0731	-904.74
0.9533,0.0467	-903.92
0.9368,0.0632	-904.43
0.9935,0.0065	-902.74
0.9690,0.0310	-903.45
0.9805,0.0195	-903.12
0.9123,0.0877	-905.22
0.9599,0.0401	-903.72
0.9471,0.0529	-904.11
0.9929,0.0071	-902.76
0.9663,0.0337	-903.53
0.9825,0.0175	-903.06
0.9271,0.0729	-904.74
0.9526,0.0474	-903.94
0.9475,0.0525	-904.10
0.9921,0.0079	-902.78
0.9617,0.0383	-903.67
0.9817,0.0183	-903.08
0.9182,0.0818	-905.03
0.9574,0.0426	-903.80
0.9420,0.0580	-904.27
0.9913,0.0087	-902.81
0.9639,0.0361	-903.60
0.9830,0.0170	-903.04
0.9139,0.0861	-905.17
0.9624,0.0376	-903.65
0.9380,0.0620	-904.39
0.9901,0.0099	-902.84
0.9432,0.0568	-904.23
0.9785,0.0215	-903.17
0.9121,0.0879	-905.23
0.9618,0.0382	-903.67
0.9360,0.0640	-904.46
0.9905,0.0095	-902.83
0.9446,0.0554	-904.19
0.9753,0.0247	-903.27
0.9161,0.0839	-905.09
0.9584,0.0416	-903.77
0.9506,0.0494	-904.00
0.9904,0.0096	-902.83
0.9382,0.0618	-904.39
0.9704,0.0296	-903.41
0.9341,0.0659	-904.52
0.9590,0.0410	-903.75
0.9442,0.0558	-904.20
0.9913,0.0087	-902.81
0.9304,0.0696	-904.63
